File: data/monolayers/nanoparticles/Ac_CoFe_C/vsm/Backup/AH11_300K_LangevinSAXSscaled.xye
#Executed at: 2018-11-15 13:05:41.8752
#Loaded File	 = ../rawdata/DD226_2_HYST_300K.DAT
#Rescale Factor	 = 4.49009
#[[Data]]
#B/T	M/kAm-1	sM/kAm-1	M_raw/memu	sM_raw/memu
-5.32832e-06	2.75431	1.8577	0.613418	0.413733
0.20277	86.5966	2.25731	19.2862	0.502732
0.419917	77.7154	1.87736	17.3082	0.41811
0.644574	53.6365	2.33703	11.9455	0.520485
0.8717	24.4508	2.80741	5.44549	0.625245
1.09965	-9.10586	2.38765	-2.02799	0.53176
1.32377	-38.9198	3.74719	-8.66792	0.834547
1.55065	-70.0234	4.30849	-15.5951	0.959554
1.78681	-109.436	5.21468	-24.3727	1.16137
2.01139	-148.117	4.79218	-32.9874	1.06728
2.24058	-180.98	5.54122	-40.3065	1.2341
2.46616	-215.792	5.54677	-48.0596	1.23533
2.69286	-246.998	4.23144	-55.0095	0.942395
2.91546	-286.822	5.75423	-63.8788	1.28154
3.14287	-319.694	6.86622	-71.1999	1.52919
3.36974	-367.177	8.39349	-81.7749	1.86934
3.59239	-398.738	8.2265	-88.8039	1.83215
3.81872	-435.421	9.88199	-96.9737	2.20084
4.04688	-470.05	8.52047	-104.686	1.89761
4.26854	-501.412	8.27269	-111.671	1.84243
4.49222	-539.892	9.17635	-120.241	2.04369
4.71706	-575.021	8.67457	-128.064	1.93194
4.94547	-613.035	9.35285	-136.531	2.083
5.17034	-652.163	8.17243	-145.245	1.8201
5.39448	-693.072	8.04646	-154.356	1.79205
5.61538	-730.806	11.2919	-162.76	2.51484
5.84131	-771.305	8.05442	-171.779	1.79382
6.06592	-804.535	8.54482	-179.18	1.90304
6.3001	-832.977	10.5712	-185.514	2.35435
6.52897	-882.95	13.1321	-196.644	2.92468
6.75314	-917.209	15.247	-204.274	3.39569
6.98351	-959.244	11.383	-213.636	2.53514
7.2094	-982.127	13.9862	-218.732	3.11491
7.43454	-1015.78	12.806	-226.228	2.85206
7.65999	-1059.24	12.7166	-235.905	2.83214
7.89413	-1107.52	13.5304	-246.659	3.01339
8.12758	-1134.92	13.511	-252.76	3.00907
8.35597	-1177.2	15.5225	-262.177	3.45705
8.58212	-1223	16.4526	-272.376	3.66419
8.80078	-1241.64	14.836	-276.529	3.30417
8.98701	-1285.62	12.6509	-286.325	2.81752
8.7686	-1248.01	16.9238	-277.948	3.76913
8.55145	-1201.17	12.6956	-267.515	2.82747
8.33273	-1165.42	14.8938	-259.554	3.31703
8.11007	-1133.3	13.0007	-252.399	2.89541
7.88257	-1109.08	15.6598	-247.005	3.48762
7.65594	-1070.23	12.0556	-238.354	2.68492
7.4555	-1040.54	12.705	-231.741	2.82956
7.23506	-996.326	13.5504	-221.894	3.01785
7.00888	-952.606	12.0352	-212.157	2.68039
6.78572	-910.74	11.3883	-202.833	2.53632
6.55533	-879.695	10.6808	-195.919	2.37876
6.33594	-834.516	13.5622	-185.857	3.02046
6.10428	-807.992	9.00278	-179.95	2.00503
5.88087	-774.774	9.50642	-172.552	2.1172
5.6679	-730.795	11.6619	-162.757	2.59726
5.44683	-697.495	7.73915	-155.341	1.7236
5.22366	-662.783	6.32968	-147.61	1.4097
5.00027	-623.043	9.66988	-138.759	2.1536
4.78011	-595.778	8.30754	-132.687	1.85019
4.56199	-555.741	9.04515	-123.77	2.01447
4.33882	-520.423	7.95981	-115.905	1.77275
4.11219	-482.907	8.65383	-107.549	1.92732
3.88552	-450.331	7.19204	-100.294	1.60176
3.65568	-398.891	6.23933	-88.838	1.38958
3.4348	-370.048	7.86166	-82.4143	1.75089
3.21592	-335.008	5.47327	-74.6105	1.21897
2.99102	-300.145	4.77136	-66.846	1.06264
2.76218	-256.917	6.42514	-57.2187	1.43096
2.53918	-230.569	4.82596	-51.3506	1.0748
2.31588	-193.313	4.42529	-43.0532	0.985567
2.08843	-159.816	3.85991	-35.5931	0.859649
1.86986	-119.758	4.42092	-26.6716	0.984595
1.64674	-85.6299	4.37037	-19.0709	0.973336
1.41538	-51.6768	3.89393	-11.5091	0.867226
1.19399	-16.8687	2.71932	-3.75686	0.605625
0.965392	12.526	1.94346	2.78969	0.432832
0.748432	41.281	2.39248	9.19378	0.532836
0.520815	67.6441	1.93784	15.0652	0.431581
0.306346	81.3194	1.93074	18.1108	0.43
0.0964106	83.7094	1.71695	18.6431	0.382386
-0.11432	-77.8755	2.246	-17.3439	0.500212
-0.329158	-79.9218	1.80091	-17.7996	0.401085
-0.546711	-62.7751	2.42512	-13.9808	0.540103
-0.772614	-37.1028	2.36408	-8.26326	0.52651
-0.994825	-10.3773	2.41911	-2.31115	0.538767
-1.22121	21.2514	3.28257	4.73296	0.73107
-1.44186	55.3637	3.32227	12.3302	0.739911
-1.66348	88.7685	4.15242	19.7698	0.924796
-1.8921	122.07	4.53746	27.1865	1.01055
-2.11472	158.254	5.03744	35.2452	1.1219
-2.34011	192.935	4.77246	42.969	1.06289
-2.57467	235.308	5.49085	52.406	1.22288
-2.79712	265.07	5.41977	59.0343	1.20705
-3.02419	300.218	6.39941	66.8624	1.42523
-3.24787	332.191	5.12352	73.983	1.14107
-3.47144	373.537	7.1693	83.1914	1.59669
-3.69231	407.229	7.64934	90.695	1.7036
-3.91116	443.663	7.04782	98.8092	1.56964
-4.13156	478.642	6.40508	106.6	1.42649
-4.3549	509.41	8.65053	113.452	1.92658
-4.5816	551.806	8.24226	122.894	1.83565
-4.80869	593.471	8.71	132.173	1.93983
-5.0391	634.688	9.60531	141.353	2.13922
-5.26544	669.875	9.51406	149.189	2.1189
-5.49381	707.864	10.6151	157.65	2.36411
-5.73093	745.372	10.8881	166.004	2.42491
-5.95952	788.476	11.27	175.603	2.50998
-6.1954	814.59	10.537	181.419	2.34672
-6.42383	856.359	8.76431	190.722	1.95192
-6.64866	892.38	9.70885	198.744	2.16228
-6.86906	935.031	9.25926	208.243	2.06215
-7.09364	978.714	11.3814	217.972	2.53478
-7.32326	1008.26	11.495	224.552	2.56009
-7.5536	1039.14	10.716	231.43	2.38659
-7.78476	1082.93	14.4148	241.181	3.21035
-8.01983	1113.39	13.8658	247.965	3.08809
-8.244	1151.63	15.0512	256.482	3.35209
-8.46707	1186.61	12.6651	264.274	2.82067
-8.67743	1226.98	12.4093	273.263	2.7637
-8.8963	1268.55	11.5435	282.521	2.57089
-8.89601	1253.26	14.5098	279.116	3.23151
-8.67346	1211.62	12.8752	269.843	2.86747
-8.45632	1195.25	12.3349	266.198	2.74713
-8.22347	1139.96	14.9556	253.883	3.3308
-7.99205	1123.06	11.8333	250.119	2.63543
-7.75695	1065.4	12.5975	237.279	2.80561
-7.52285	1044.35	13.0268	232.59	2.90123
-7.29848	1015.23	13.9215	226.105	3.10048
-7.06786	956.5	10.2491	213.024	2.28261
-6.83603	927.102	9.71163	206.477	2.1629
-6.602875	886.945	9.84529	197.534	2.19267
-6.36631	840.865	10.4295	187.271	2.32278
-6.13762	809.125	8.17636	180.202	1.82098
-5.90879	777.006	10.0107	173.049	2.2295
-5.67817	732.061	9.09637	163.039	2.02588
-5.45032	698.231	8.29018	155.505	1.84633
-5.22346	659.376	9.22974	146.851	2.05558
-5.00534	618.679	8.81577	137.788	1.96338
-4.78794	587.806	8.00093	130.912	1.78191
-4.56886	548.392	8.05731	122.134	1.79446
-4.34818	511.266	8.29811	113.865	1.84809
-4.12085	481.648	8.08587	107.269	1.80082
-3.90091	444.713	6.89929	99.0432	1.53656
-3.66982	407.412	7.1685	90.7357	1.59651
-3.4495	374.772	7.03475	83.4664	1.56673
-3.22535	336.638	5.90904	74.9734	1.31602
-3.00373	302.336	6.95247	67.334	1.5484
-2.7749	263.347	5.64653	58.6507	1.25755
-2.54971	222.399	6.608	49.531	1.47168
-2.32037	192.375	6.32077	42.8444	1.40772
-2.09196	160.702	4.2301	35.7904	0.942097
-1.8641	119.649	3.99836	26.6474	0.890485
-1.63624	82.1751	4.56905	18.3014	1.01759
-1.41115	48.2181	3.69908	10.7388	0.823831
-1.18021	18.4421	2.43447	4.10729	0.542186
-0.950381	-12.0683	3.03512	-2.68775	0.675958
-0.732889	-44.6469	2.51383	-9.94342	0.55986
-0.505006	-68.5613	2.56357	-15.2695	0.570938
-0.282572	-85.8211	2.28298	-19.1134	0.508448
-0.069564	-78.9446	2.11898	-17.582	0.471924
0.133607	81.5104	1.77071	18.1534	0.394358
0.342433	81.1695	2.12214	18.0775	0.472628
0.561536	64.5053	1.88499	14.3661	0.419812
0.783923	39.001	2.43966	8.68601	0.543343
1.00462	8.72005	2.80139	1.94207	0.623904
1.23401	-24.1138	3.31487	-5.37044	0.738262
1.45766	-62.5252	4.23826	-13.9251	0.943914
1.68328	-89.794	4.44465	-19.9982	0.989878
1.90966	-125.139	4.3584	-27.8701	0.970671
2.13726	-162.04	4.62479	-36.0882	1.03
2.36393	-196.434	5.44227	-43.7482	1.21206
2.59281	-235.979	5.74836	-52.5555	1.28023
2.8135	-266.189	6.81137	-59.2836	1.51698
3.03014	-299.039	5.75792	-66.5997	1.28236
3.25905	-337.693	5.41555	-75.2084	1.20611
3.48221	-371.865	6.94145	-82.8189	1.54595
3.70381	-413.18	6.24139	-92.0203	1.39004
3.93288	-443.676	8.03394	-98.8121	1.78926
4.16405	-486.522	7.05383	-108.354	1.57098
4.39219	-517.283	7.27968	-115.205	1.62128
4.61336	-558.751	7.51407	-124.441	1.67348
4.84248	-590.549	10.1058	-131.523	2.25068
5.07065	-635.373	7.66661	-141.505	1.70745
5.29629	-662.613	9.53304	-147.572	2.12313
5.5184	-706.995	9.22945	-157.457	2.05551
5.74604	-739.662	7.7816	-164.732	1.73306
5.97418	-778.111	8.88034	-173.295	1.97776
6.2003	-814.658	11.7217	-181.435	2.61058
6.43051	-843.92	13.0504	-187.952	2.90649
6.662875	-897.094	13.148	-199.794	2.92821
6.89479	-934.445	13.5976	-208.113	3.02835
7.12516	-956.369	12.2923	-212.995	2.73765
7.35679	-1003.61	11.7314	-223.515	2.61273
7.5825	-1043.49	10.1331	-232.397	2.25676
7.8129	-1062.13	11.6627	-236.55	2.59742
8.04762	-1122.25	12.8272	-249.939	2.85678
8.27975	-1151.1	12.4781	-256.365	2.77902
8.50565	-1186.65	15.4007	-264.281	3.42993
8.71834	-1212.13	13.7499	-269.958	3.06227
8.94202	-1254.56	12.0854	-279.405	2.69157
8.84755	-1258.02	14.9838	-280.178	3.33708
8.63414	-1203.7	11.4135	-268.079	2.54194
8.41321	-1163.6	12.0033	-259.147	2.67328
8.18631	-1124.54	13.5762	-250.45	3.02359
7.96081	-1092.7	13.7819	-243.358	3.0694
7.73263	-1067.12	10.6996	-237.662	2.38294
7.5137	-1030.82	11.9906	-229.577	2.67047
7.28155	-991.353	11.8596	-220.787	2.64127
7.04437	-951.69	9.66118	-211.953	2.15166
6.82097	-913.747	10.6418	-203.503	2.37007
6.58482	-873.708	9.77706	-194.586	2.17747
6.35273	-851.573	12.5035	-189.656	2.78467
6.11775	-794.205	9.35427	-176.879	2.08331
5.88633	-762.925	10.8405	-169.913	2.41432
5.65944	-735.134	9.63467	-163.724	2.14576
5.43007	-696.923	9.8886	-155.214	2.20231
5.20218	-646.39	8.33609	-143.959	1.85655
4.97428	-607.426	10.0417	-135.281	2.2364
4.74241	-581.108	9.65042	-129.42	2.14927
4.52128	-546.389	8.67862	-121.688	1.93284
4.287325	-501.436	7.39901	-111.676	1.64785
4.05949	-465.27	8.56426	-103.621	1.90737
3.82957	-432.862	7.2411	-96.4037	1.61268
3.59898	-392.944	8.49746	-87.5135	1.89249
3.37457	-356.951	7.73792	-79.4976	1.72333
3.147	-318.835	7.75248	-71.0084	1.72657
2.92106	-283.131	6.71597	-63.0569	1.49573
2.69423	-247.162	5.95406	-55.0462	1.32604
2.46928	-216.418	5.75963	-48.199	1.28274
2.24643	-182.102	5.38426	-40.5563	1.19914
2.01978	-141.225	4.99917	-31.4527	1.11338
1.78321	-104.326	4.75239	-23.2347	1.05842
1.54981	-70.9603	4.50126	-15.8037	1.00249
1.32218	-35.6596	4.01211	-7.94184	0.893546
1.10033	-5.38572	3.3124	-1.19947	0.737712
0.867618	27.4381	2.40935	6.11081	0.536593
0.649757	57.2215	2.65681	12.744	0.591705
0.426572	78.1376	2.22784	17.4022	0.496168
0.20796	86.2493	1.84651	19.2088	0.411241
-3.88206e-05	13.5429	1.50519	3.01618	0.335225