File: data/monolayers/nanoparticles/Ac_CoFe_C/vsm/Backup/AH11_350K_LangevinSAXSscaled.xye
#Executed at: 2018-11-15 15:45:37.2565
#Loaded File	 = ../rawdata/DD226_2_HYST_350K_REPEAT.DAT
#Rescale Factor	 = 4.32812
#[[Data]]
#B/T	M/kAm-1	sM/kAm-1	M_raw/memu	sM_raw/memu
1.5985e-05	-2.37261	2.03982	-0.548185	0.471295
0.128274	80.281	2.34543	18.5487	0.541905
0.27135	83.801	1.77099	19.362	0.409183
0.424183	78.0229	2.18929	18.027	0.50583
0.571442	66.035	2.53643	15.2572	0.586035
0.71508	50.923	2.61623	11.7656	0.604473
0.854236	32.9902	2.82042	7.62228	0.651649
0.999973	13.1404	2.8591	3.03605	0.660587
1.14343	-5.761	3.04763	-1.33106	0.704146
1.29031	-23.6707	2.69795	-5.46904	0.623352
1.43929	-47.658	3.38126	-11.0112	0.781229
1.59067	-73.4962	3.58369	-16.9811	0.828001
1.74109	-92.8387	3.93589	-21.4501	0.909375
1.89802	-113.558	3.91313	-26.2372	0.904118
2.04918	-130.229	5.33139	-30.0891	1.2318
2.20585	-160.128	4.87015	-36.9972	1.12523
2.35881	-185.361	4.62451	-42.827	1.06848
2.5142	-209.907	4.33917	-48.4983	1.00255
2.65936	-227.041	5.58975	-52.4572	1.2915
2.80785	-255.67	6.47156	-59.0717	1.49523
2.96776	-277.251	7.34766	-64.058	1.69766
3.12169	-297.892	4.32191	-68.827	0.998565
3.27136	-325.551	5.60774	-75.2176	1.29565
3.43452	-347.65	4.31325	-80.3235	0.996563
3.58622	-367.797	4.80588	-84.9783	1.11038
3.72835	-397.879	7.41848	-91.9287	1.71402
3.89278	-420.805	7.77337	-97.2256	1.79601
4.04772	-445.006	5.43959	-102.817	1.2568
4.20314	-466.243	7.12613	-107.724	1.64647
4.35003	-493.995	6.94918	-114.136	1.60559
4.50282	-519.599	7.99926	-120.052	1.8482
4.64947	-538.882	8.78776	-124.507	2.03039
4.7986	-560.079	6.5761	-129.405	1.51939
4.95331	-587.558	8.19282	-135.753	1.89293
5.10972	-612.5	10.6557	-141.516	2.46197
5.26113	-635.666	8.60783	-146.869	1.98881
5.4128	-662.15	7.29349	-152.988	1.68514
5.57073	-688.045	7.64334	-158.971	1.76597
5.72212	-706.056	6.19661	-163.132	1.43171
5.87283	-727.588	9.32946	-168.107	2.15554
6.01925	-758.66	8.66528	-175.286	2.00209
6.17566	-765.774	8.8542	-176.93	2.04574
6.32768	-798.46	8.92649	-184.482	2.06244
6.48232	-820.106	8.66589	-189.483	2.00223
6.63272	-848.837	8.95776	-196.121	2.06966
6.7897	-870.366	12.1778	-201.095	2.81363
6.9376	-912.815	10.1328	-210.903	2.34116
7.0955	-923.42	9.12723	-213.353	2.10882
7.24798	-953.304	11.9989	-220.258	2.7723
7.39987	-966.49	10.9729	-223.305	2.53525
7.55531	-997.27	9.23052	-230.416	2.13268
7.70454	-1015.3	8.14006	-234.581	1.88074
7.85795	-1047.99	11.1884	-242.135	2.58505
8.01389	-1064.91	10.3798	-246.043	2.39823
8.16263	-1105.53	12.6735	-255.429	2.92818
8.31209	-1100.69	10.4632	-254.311	2.41749
8.45824	-1129.34	13.1093	-260.93	3.02886
8.60446	-1164.12	9.2629	-268.968	2.14017
8.74391	-1196.09	10.6851	-276.354	2.46875
8.88181	-1215.47	10.1062	-280.832	2.335
8.97653	-1218.06	12.6037	-281.43	2.91205
8.83553	-1205.4	10.9866	-278.505	2.53842
8.68759	-1173.31	8.00653	-271.09	1.84989
8.54015	-1153.18	9.7691	-266.44	2.25712
8.38994	-1132.27	9.01821	-261.607	2.08363
8.23349	-1092.45	10.2517	-252.407	2.36863
8.08032	-1085.71	11.8246	-250.851	2.73204
7.93526	-1054.99	11.9034	-243.753	2.75025
7.7846	-1024.03	10.7858	-236.6	2.49203
7.63216	-1017.43	11.3898	-235.073	2.63158
7.4759	-969.36	8.66861	-223.968	2.00286
7.32699	-943.333	8.70294	-217.954	2.01079
7.17728	-935.181	7.75341	-216.071	1.7914
7.01932	-905.741	9.4089	-209.269	2.1739
6.86841	-883.408	10.9775	-204.109	2.53631
6.71621	-859.792	6.57338	-198.652	1.51876
6.56502	-837.058	7.44992	-193.4	1.72128
6.40935	-811.135	10.2758	-187.41	2.37419
6.25067	-798.346	7.66726	-184.455	1.7715
6.09947	-763.218	8.45551	-176.339	1.95362
5.95049	-739.693	7.27962	-170.904	1.68194
5.79731	-699.798	8.39564	-161.686	1.93979
5.64237	-684.365	7.59423	-158.12	1.75462
5.4937	-666.239	7.14629	-153.932	1.65113
5.34177	-644.635	7.37602	-148.941	1.70421
5.19511	-634.251	7.53103	-146.542	1.74002
5.04519	-584.231	7.56448	-134.985	1.74775
4.89449	-583.389	7.50909	-134.79	1.73495
4.74654	-548.076	8.562	-126.631	1.97822
4.59266	-525.09	6.7602	-121.321	1.56192
4.43492	-497.282	6.10249	-114.895	1.40996
4.28452	-479.466	6.32823	-110.779	1.46212
4.13411	-452.546	6.54295	-104.559	1.51173
3.99216	-435.636	5.08264	-100.652	1.17433
3.839	-416.711	7.05308	-96.2799	1.62959
3.68708	-386.305	5.99872	-89.2545	1.38599
3.53416	-368.771	4.09101	-85.2035	0.945217
3.384	-339.094	4.53863	-78.3468	1.04864
3.236325	-318.036	4.9785	-73.4813	1.15027
3.08266	-297.2	4.88165	-68.6671	1.12789
2.94225	-273.326	5.86467	-63.1511	1.35501
2.80157	-252.137	5.13909	-58.2556	1.18737
2.66335	-233.364	4.91647	-53.9181	1.13594
2.51467	-210.672	4.95304	-48.6751	1.14438
2.36178	-186.235	3.95647	-43.0291	0.914131
2.20556	-165.207	4.20579	-38.1706	0.971734
2.05316	-139.444	3.68172	-32.2181	0.850651
1.90451	-114.516	4.69426	-26.4585	1.0846
1.75459	-96.1521	4.16707	-22.2157	0.96279
1.61018	-71.3746	2.58243	-16.4909	0.596663
1.46027	-51.3511	3.38214	-11.8645	0.781433
1.31058	-28.7705	3.16014	-6.64733	0.73014
1.16068	-9.05157	2.51883	-2.09134	0.581969
1.01276	16.8196	2.46932	3.88613	0.570529
0.86302	33.7699	2.56961	7.80244	0.593702
0.710116	53.679	2.7009	12.4024	0.624034
0.562443	69.9461	2.55794	16.1608	0.591004
0.415739	79.905	2.07345	18.4618	0.479065
0.268044	88.1676	2.11696	20.3709	0.489117
0.126086	83.4859	2.18669	19.2892	0.505228
-0.0188812	-35.6412	2.0274	-8.23478	0.468424
-0.161495	-79.8513	2.42467	-18.4494	0.560213
-0.305208	-80.9397	2.38881	-18.7009	0.551927
-0.453289	-75.5814	2.26776	-17.4628	0.523958
-0.595517	-65.0399	2.13778	-15.0273	0.493928
-0.741683	-47.9729	2.45349	-11.084	0.566871
-0.894922	-28.8414	3.75862	-6.66372	0.868419
-1.04061	-5.68378	3.18105	-1.31322	0.734973
-1.19377	11.4948	3.85307	2.65583	0.89024
-1.33947	35.3625	3.68435	8.17041	0.851257
-1.49864	57.5818	3.39606	13.3041	0.784649
-1.64555	77.9062	3.98658	18	0.921087
-1.79797	99.1333	3.9331	22.9044	0.90873
-1.94887	123.988	5.57026	28.6471	1.28699
-2.10004	144.997	6.06396	33.5011	1.40106
-2.25973	172.627	6.33922	39.8851	1.46466
-2.42315	199.858	6.08438	46.1766	1.40578
-2.57901	220.064	4.20022	50.8451	0.970448
-2.73801	244.903	6.25592	56.5841	1.44541
-2.89189	270.855	5.81631	62.5802	1.34384
-3.04256	290.185	5.27102	67.0465	1.21785
-3.20494	313.693	4.9433	72.4778	1.14213
-3.36087	341.705	5.97948	78.95	1.38154
-3.51724	362.899	5.97182	83.8468	1.37977
-3.67863	392.214	5.79413	90.6199	1.33872
-3.83581	417.294	7.28445	96.4145	1.68305
-3.9915	441.295	8.06724	101.96	1.86391
-4.14691	465.795	7.52509	107.621	1.73865
-4.30757	487.241	9.21599	112.576	2.12933
-4.46679	512.349	8.66755	118.377	2.00261
-4.62245	543.788	8.75916	125.641	2.02378
-4.78784	568.358	11.7021	131.317	2.70374
-4.94352	583.584	9.04559	134.835	2.08996
-5.09741	610.451	9.20919	141.043	2.12776
-5.25905	641.455	7.40412	148.206	1.7107
-5.42194	662.386	8.6198	153.042	1.99158
-5.58162	680.559	10.2602	157.241	2.37058
-5.73776	715.496	9.62486	165.313	2.22379
-5.89994	740.416	10.8607	171.071	2.50933
-6.05611	760.657	9.86299	175.748	2.27881
-6.20776	788.665	7.50623	182.219	1.73429
-6.37172	810.392	10.5456	187.239	2.43652
-6.52711	841.507	10.2175	194.428	2.36072
-6.68099	864.447	9.82763	199.728	2.27064
-6.83617	884.004	8.34334	204.247	1.9277
-6.98658	907.237	10.6744	209.615	2.46628
-7.1415	939.396	11.3933	217.045	2.63238
-7.30016	950.932	10.6493	219.71	2.46049
-7.4598	983.825	8.18937	227.31	1.89213
-7.61919	1013.24	9.01716	234.105	2.08339
-7.78035	1043.17	12.4484	241.02	2.87616
-7.94048	1058.82	8.65036	244.638	1.99864
-8.10295	1072.52	12.6945	247.802	2.93302
-8.26058	1113.95	12.9431	257.376	2.99047
-8.4202	1144.13	11.1164	264.348	2.56841
-8.57264	1166.47	13.6813	269.509	3.16103
-8.72302	1176.29	14.3528	271.779	3.31618
-8.87916	1211.19	10.6141	279.841	2.45235
-8.98457	1222.09	12.09	282.361	2.79336
-8.83081	1188.1	11.4922	274.507	2.65524
-8.68396	1182.19	9.47004	273.14	2.18803
-8.53605	1147.46	11.2254	265.118	2.59359
-8.37611	1143.84	12.8161	264.281	2.96113
-8.21195	1105.37	12.8202	255.392	2.96208
-8.04962	1080.9	11.4813	249.738	2.65273
-7.89462	1055.82	12.6426	243.945	2.92104
-7.73223	1022.62	10.9155	236.272	2.522
-7.58558	1004.72	9.59106	232.138	2.21599
-7.42687	978.038	10.0193	225.973	2.31493
-7.26954	960.114	13.9348	221.832	3.21961
-7.10708	934.304	9.85584	215.868	2.27716
-6.93891	899.811	9.68678	207.899	2.2381
-6.78108	869.973	8.56874	201.005	1.97978
-6.626625	847.713	8.59825	195.862	1.9866
-6.46695	827.561	10.8788	191.205	2.51352
-6.30408	802.008	8.67336	185.302	2.00395
-6.14612	771.713	9.34107	178.302	2.15823
-5.99671	748.934	9.15148	173.039	2.11442
-5.84308	712.889	8.99354	164.711	2.07793
-5.69234	709.724	7.96944	163.98	1.84132
-5.53749	687.04	8.78082	158.739	2.02878
-5.38456	662.94	7.64921	153.17	1.76733
-5.22991	629.774	8.05361	145.507	1.86076
-5.07751	615.405	6.04329	142.188	1.39628
-4.91561	587.538	7.79759	135.749	1.80161
-4.75593	560.187	7.59342	129.43	1.75444
-4.6003	536.622	7.38783	123.985	1.70694
-4.44011	515.826	6.26518	119.18	1.44755
-4.27696	484.895	8.29886	112.034	1.91743
-4.1228	459.363	7.965	106.134	1.84029
-3.96882	437.194	4.90559	101.012	1.13342
-3.82168	407.726	4.34871	94.2039	1.00476
-3.6593	390.541	8.20385	90.2333	1.89547
-3.50631	360.908	5.05757	83.3867	1.16854
-3.35573	342.269	5.24419	79.0803	1.21165
-3.20085	315.981	5.62566	73.0065	1.29979
-3.04636	292.14	5.17214	67.4981	1.19501
-2.89552	268.514	5.03437	62.0394	1.16318
-2.74616	243.75	4.83541	56.3176	1.11721
-2.5874	219.644	5.28405	50.748	1.22086
-2.43474	201.111	3.38604	46.4662	0.782333
-2.27887	174.329	4.87435	40.2782	1.12621
-2.12464	151.989	4.71305	35.1167	1.08894
-1.969	129.145	4.30677	29.8385	0.995066
-1.81862	106.616	4.06876	24.6333	0.940075
-1.6607	81.023	3.81691	18.7201	0.881886
-1.50678	56.1392	2.90415	12.9708	0.670994
-1.34539	32.003	3.16828	7.39419	0.732022
-1.19468	14.0683	2.38643	3.25044	0.551377
-1.03452	-7.88768	2.182	-1.82242	0.504146
-0.875277	-29.5766	2.8558	-6.83359	0.659824
-0.724368	-49.754	2.1984	-11.4955	0.507934
-0.573172	-66.3773	2.06731	-15.3363	0.477646
-0.42396	-78.7875	2.36394	-18.2036	0.546181
-0.266258	-86.3484	1.78468	-19.9505	0.412345
-0.123041	-79.4112	2.10052	-18.3477	0.485318
0.0256743	46.2328	2.20219	10.682	0.508809
0.170536	85.9118	2.18275	19.8497	0.504317
0.202949	88.1084	1.98448	20.3572	0.458507