File: data/monolayers/nanoparticles/Ac_CoFe_C_AH/vsm/ah11_300K_rescaled.dat
#Loaded datafile ../AH11_HYST_INIT_300K.DAT
#Used as Ms_fit 2038.01
#Used as Ms_calc 229.328
#Rescaled data with factor 0.112525
#B/T	M/kAm-1	sM/kAm-1
-1.52238e-06	-6.23846	0.000117452
0.133304	186.518	0.00361459
0.281922	204.91	0.00383755
0.422583	213.756	0.00477961
0.568124	210.807	0.00285166
0.711023	213.428	0.00496308
0.86116	216.059	0.00459453
1.01166	218.87	0.00471091
1.16856	215.445	0.00518462
1.32176	216.287	0.00441816
1.47392	216.394	0.00524201
1.62785	216.819	0.00535406
1.78024	211.768	0.00394035
1.93167	217.785	0.00480744
2.08585	213.46	0.00520941
2.23728	210.082	0.00483885
2.38767	210.516	0.00453022
2.54162	211.776	0.00446158
2.69356	205.311	0.00562914
2.85322	204.873	0.00472356
3.00314	209.209	0.00566861
3.15432	201.351	0.00457528
3.30573	202.503	0.00494634
3.45765	202.478	0.00478929
3.61282	199.71	0.0051155
3.76675	194.129	0.00464688
3.92012	194.259	0.00512683
4.07034	195.085	0.00509885
4.22274	196.518	0.00523126
4.37237	188.878	0.00629514
4.52713	190.73	0.0048584
4.68054	187.74	0.00593126
4.83421	184.271	0.00501834
4.98717	183.955	0.00430768
5.14428	178.495	0.0053415
5.29419	178.824	0.00519789
5.44565	176.416	0.00571568
5.59603	178.051	0.00497489
5.75042	171.865	0.00530794
5.90264	170.783	0.00605825
6.05431	165.788	0.00581684
6.20448	165.048	0.00659092
6.35947	163.328	0.00567762
6.5124	163.5	0.00579906
6.66404	159.529	0.00509685
6.81847	155.368	0.00594168
6.96817	155.182	0.00748246
7.12207	153.732	0.00591095
7.27776	150.85	0.00661588
7.42968	145.849	0.00687825
7.58265	147.327	0.00772757
7.73831	142.115	0.0067294
7.8885	139.317	0.00669493
8.0435	135.976	0.00640566
8.19591	133.802	0.00653896
8.35161	131.065	0.00850696
8.50132	131.807	0.00748916
8.64499	128.266	0.00789255
8.79765	124.176	0.00921815
8.9456	124.282	0.00810308
8.91224	125.15	0.00905732
8.77059	124.296	0.00747294
8.62614	129.697	0.0090239
8.47643	130.826	0.00871082
8.32649	136.049	0.00772335
8.17628	139.411	0.00768724
8.02204	136.109	0.00687868
7.86832	141.258	0.00751544
7.71214	141.03	0.00703204
7.56166	145.139	0.0082185
7.40948	146.276	0.00711038
7.25281	148.178	0.00551297
7.0986	151.408	0.00680384
6.95143	152.926	0.00631391
6.80172	156.845	0.00685455
6.65103	158.218	0.00464918
6.49213	157.801	0.00620095
6.34147	165.889	0.00604627
6.19095	164.193	0.00560642
6.03927	164.614	0.00604262
5.88688	168.678	0.00590059
5.73666	171.409	0.00558147
5.58252	170.421	0.00525016
5.43208	174.151	0.00563652
5.27789	175.892	0.00465866
5.12624	178.395	0.00618249
4.97557	178.278	0.00610052
4.82214	184.358	0.00549058
4.67073	184.785	0.004694
4.51381	184.319	0.00421168
4.36109	194.041	0.00489065
4.20896	190.063	0.00498747
4.05703	190.285	0.00465918
3.90183	192.532	0.00421115
3.75144	193.734	0.00601898
3.60202	192.774	0.00605837
3.44686	198.8	0.00633051
3.29119	198.729	0.00566814
3.13728	201.246	0.00447872
2.9806	203.214	0.00521093
2.8352	198.732	0.00392312
2.68077	204.642	0.00424766
2.53056	206.876	0.00513738
2.37767	204.819	0.00528554
2.22248	206.886	0.00417146
2.07382	207.576	0.00407548
1.92264	206.23	0.00515151
1.77175	211.474	0.00470822
1.61933	210.581	0.00510065
1.47067	209.73	0.00430551
1.31974	208.622	0.00461776
1.16836	208.613	0.00407608
1.01466	208.402	0.00421806
0.862699	211.791	0.00421442
0.714054	208.508	0.00449718
0.567362	206.218	0.00362005
0.418918	201.566	0.00423282
0.269503	197.735	0.00336973
0.125744	178.471	0.0029915
-0.0201587	-73.2751	0.0015882
-0.162119	-184.482	0.00375677
-0.308252	-199.282	0.00392763
-0.458111	-203.324	0.00335553
-0.605817	-205.869	0.00401116
-0.753999	-204.952	0.00397855
-0.902715	-210.142	0.00370787
-1.05365	-208.81	0.00514578
-1.20085	-209.624	0.00474982
-1.35202	-208.095	0.00367216
-1.50367	-209.967	0.0049773
-1.6586	-208.434	0.00494327
-1.813	-205.899	0.00510466
-1.96266	-204.425	0.00435422
-2.11431	-204.108	0.00524094
-2.26724	-204.942	0.00509769
-2.42141	-202.257	0.00424649
-2.57378	-202.37	0.00459053
-2.72674	-199.061	0.00451926
-2.88218	-203.859	0.00478898
-3.03032	-196.358	0.00602043
-3.1815	-197.6	0.00448258
-3.33867	-193.547	0.00375425
-3.49227	-195.914	0.00430925
-3.64697	-191.241	0.00479921
-3.79862	-189.329	0.00617506
-3.95426	-187.305	0.00564754
-4.1072	-190.085	0.00620452
-4.2601	-183.901	0.00495202
-4.41346	-184.588	0.00505272
-4.56722	-183.502	0.0052612
-4.72236	-181.858	0.00582665
-4.87296	-174.689	0.00433435
-5.02819	-173.627	0.00560294
-5.17908	-174.423	0.0057603
-5.33297	-170.803	0.00535023
-5.48614	-171.351	0.00584876
-5.64182	-166.076	0.00514431
-5.79197	-167.097	0.00503633
-5.95138	-163.232	0.00504209
-6.10853	-158.486	0.00669546
-6.25821	-159.131	0.00427524
-6.40914	-155.944	0.00571469
-6.56803	-158.788	0.00564354
-6.71696	-153.316	0.00687561
-6.87157	-153.774	0.0065519
-7.02847	-147.941	0.00606169
-7.18165	-144.957	0.00587125
-7.33178	-141.246	0.00690508
-7.48563	-142.15	0.00735982
-7.63763	-134.957	0.00717307
-7.78827	-138.231	0.00689545
-7.94208	-133.023	0.0065444
-8.09586	-131.498	0.00717161
-8.24995	-131.304	0.00715785
-8.39663	-129.496	0.00641855
-8.54555	-128.836	0.00765847
-8.69293	-121.341	0.00974174
-8.8443	-120.01	0.00664495
-8.99074	-117.126	0.00657927
-8.86406	-119.307	0.00752497
-8.71918	-120.395	0.00810431
-8.57257	-126.739	0.00740334
-8.42184	-128.398	0.00682998
-8.27069	-129.025	0.0076696
-8.11409	-129.735	0.00713964
-7.95687	-135.955	0.00684717
-7.80567	-136.89	0.00594673
-7.65808	-137.638	0.00572315
-7.50688	-140.731	0.00720824
-7.34773	-141.99	0.0062273
-7.1881	-144.078	0.00540096
-7.03918	-147.38	0.00604582
-6.88182	-149.194	0.00673992
-6.72641	-150.745	0.00588291
-6.57321	-155.945	0.00489537
-6.42184	-155.051	0.00587196
-6.2682	-154.824	0.00678972
-6.11674	-160.718	0.00500481
-5.9626	-162.236	0.00531486
-5.80846	-166.372	0.00564274
-5.65476	-168.312	0.00504906
-5.50405	-166.784	0.00495859
-5.35397	-172.041	0.00541346
-5.20279	-169.889	0.00500755
-5.05315	-173.245	0.00701216
-4.89696	-175.052	0.00396221
-4.74582	-179.514	0.00578317
-4.59346	-178.16	0.00537848
-4.44048	-181.013	0.00476931
-4.29083	-184.229	0.00601973
-4.13391	-185.828	0.00470369
-3.9768	-189.378	0.00459622
-3.82483	-186.487	0.00506807
-3.67166	-189.169	0.00489441
-3.51903	-191.032	0.00432964
-3.36388	-194.534	0.00510464
-3.20773	-194.57	0.00493168
-3.05055	-193.38	0.00475416
-2.89595	-198.818	0.00422237
-2.74505	-196.628	0.00429285
-2.59281	-199.862	0.00450365
-2.44293	-200.074	0.00456263
-2.29179	-203.586	0.00485081
-2.13934	-201.164	0.0046877
-1.98668	-204.815	0.00439974
-1.83354	-206.518	0.00523195
-1.68162	-208.353	0.00480525
-1.53272	-205.375	0.00469764
-1.38479	-207.302	0.00416535
-1.23457	-205.469	0.00411184
-1.07917	-206.16	0.00393347
-0.932279	-202.483	0.00345507
-0.782533	-206.401	0.00369791
-0.635361	-202.496	0.00394523
-0.488939	-199.944	0.00355269
-0.339213	-194.947	0.00338925
-0.193497	-187.829	0.00359495
-0.0497941	-131.623	0.00314042
0.0940496	164.102	0.00321654
0.236362	191.678	0.00366007
0.385773	197.391	0.00465713
0.53483	203.09	0.00396967
0.681775	201.561	0.00349471
0.831973	204.153	0.00450897
0.975954	202.56	0.00454923
1.12786	200.838	0.00415375
1.27928	203.578	0.00432176
1.43199	205.246	0.00374495
1.58089	204.85	0.0045476
1.73254	204.012	0.00399265
1.88198	198.699	0.00463379
2.03187	204.131	0.00560951
2.18129	201.9	0.00481143
2.33526	198.962	0.00470591
2.48668	196.965	0.00620842
2.63877	199.704	0.00446473
2.7915	199.216	0.00433252
2.94716	195.644	0.00444275
3.0946	193.364	0.00432396
3.2468	191.823	0.00368988
3.40423	190.461	0.00471662
3.55764	187.067	0.00451959
3.72204	185.519	0.00479438
3.87272	186.954	0.0042158
4.03037	185.354	0.00456528
4.18106	183.701	0.00418597
4.33798	182.268	0.00486966
4.49145	180.568	0.00507116
4.64383	177.991	0.00493627
4.79696	175.421	0.00466131
4.95272	173.935	0.00460316
5.10813	172.451	0.00486634
5.26251	171.986	0.00655169
5.41873	166.585	0.00476394
5.57256	165.225	0.00662203
5.727	164.3	0.00486375
5.88297	156.712	0.00552232
6.03887	161.543	0.00660557
6.19302	156.069	0.00600022
6.34728	154.013	0.00677078
6.50644	154.54	0.00534632
6.66684	150.625	0.00587829
6.82127	147.871	0.00712045
6.97598	143.083	0.00614449
7.13366	141.763	0.00730016
7.28904	141.522	0.00618077
7.4475	138.115	0.00778703
7.60022	136.247	0.00714442
7.75912	131.923	0.00709549
7.92179	128.504	0.00706817
8.07478	131.035	0.00690584
8.22648	126.64	0.00628938
8.38389	121.258	0.00704699
8.5346	121.974	0.00609446
8.68502	120.223	0.00774143
8.8342	119.442	0.00791314
8.98613	117.729	0.00708821
8.99996	115.39	0.00892421