File: data/monolayers/nanoparticles/Ac_CoFe_C_AH/vsm/ah11_10K_rescaled.dat
#Loaded datafile ../../AH11_HYST_100OE_10K.DAT
#Rescaled data with factor 0.112525
#B/T	M/kAm-1	sM/kAm-1
1.97909e-05	106.232	4.52137e-05
0.134838	118.156	4.22426e-05
0.275968	130.538	4.4555e-05
0.419346	143.257	4.21169e-05
0.564382	156.174	4.64314e-05
0.706294	168.877	5.31115e-05
0.850956	182.344	5.491e-05
0.996933	196.329	5.55955e-05
1.13459	210.672	6.4628e-05
1.27776	225.819	5.70292e-05
1.41648	242.98	7.06726e-05
1.55563	260.307	8.12065e-05
1.69928	280.532	8.85917e-05
1.83951	302.096	8.77053e-05
1.98666	326.083	0.000108179
2.11958	349.953	9.51871e-05
2.25802	375.405	0.000116162
2.40118	402.058	0.00011077
2.54487	427.738	0.00011771
2.68632	451.059	0.000137125
2.82898	472.925	0.000118999
2.97268	492.947	9.4775e-05
3.11083	510.57	0.000104423
3.25978	526.506	0.000126555
3.40595	541.04	0.000140346
3.54687	553.563	0.000124374
3.68827	565.54	0.000114921
3.83419	575.681	0.000178837
3.98084	584.958	0.000150219
4.12031	593.507	0.000140923
4.26748	600.985	0.000154787
4.40964	608.293	0.000165403
4.55415	614.734	0.000140109
4.69378	620.865	0.000222787
4.83746	626.273	0.000189947
4.97891	631.766	0.000132657
5.12231	636.474	0.000188512
5.27796	641.593	0.000147763
5.44115	646.247	0.000154429
5.5983	650.909	0.000199226
5.75868	654.837	0.000176343
5.91164	658.678	0.000168124
6.07232	662.03	0.000184014
6.23197	665.072	0.000215584
6.3817	667.931	0.00015633
6.5376	670.908	0.000217651
6.69629	673.524	0.000194186
6.85272	676.158	0.000221502
7.01735	678.051	0.000214115
7.17483	680.223	0.00019247
7.33576	682.039	0.000220859
7.49864	683.563	0.000230536
7.6566	684.375	0.000214678
7.81553	686.383	0.000270469
7.9772	687.556	0.000262601
8.13967	688.667	0.000235001
8.28763	689.445	0.000229947
8.44906	690.367	0.000225722
8.60725	690.607	0.000247466
8.75395	691.65	0.000248358
8.90389	692.439	0.000240456
8.94239	692.839	0.00026694
8.79155	692.814	0.000255496
8.64333	692.282	0.000262356
8.49316	691.871	0.000237483
8.3417	691.346	0.000247237
8.17849	690.895	0.000279279
8.02178	690.071	0.000272372
7.86109	689.129	0.000208133
7.69992	687.585	0.000265684
7.54293	686.343	0.000244589
7.38748	685.715	0.000205169
7.21935	684.175	0.000201463
7.06161	682.431	0.000206861
6.90144	680.599	0.000193647
6.74554	678.846	0.000189465
6.58779	676.66	0.000215847
6.4299	674.289	0.000202312
6.26997	672.177	0.000189594
6.1135	669.482	0.000216168
5.95158	666.121	0.000197732
5.79314	663.419	0.000227219
5.64043	660.111	0.000217183
5.47779	656.591	0.000223748
5.32113	653.068	0.000214591
5.15446	648.535	0.00016108
4.99406	644.747	0.000189876
4.83388	640.307	0.000193298
4.667	634.873	0.000161349
4.51805	630.487	0.00016426
4.35508	625.03	0.000175642
4.19944	619.233	0.000189912
4.03803	614.015	0.000139993
3.88107	607.441	0.000151223
3.72518	601.356	0.000145413
3.57177	594.44	0.000150675
3.41385	587.668	0.000162432
3.25045	580.337	0.000135321
3.09703	572.402	0.000173861
2.93611	564.602	0.000122767
2.78148	556.196	0.000162953
2.62725	547.538	0.000155614
2.46333	538.187	0.000134598
2.30546	528.977	0.000112649
2.14375	519.284	0.000118963
1.9911	509.493	0.000102591
1.83397	499.004	0.000103371
1.67204	488.182	0.000108403
1.51838	477.314	0.000101415
1.36048	466.263	9.02606e-05
1.20508	454.401	0.000104774
1.04014	442.198	8.19326e-05
0.888449	430.129	8.36628e-05
0.720057	416.816	7.25107e-05
0.564614	403.999	7.20461e-05
0.40592	390.339	7.93253e-05
0.251461	376.1	5.43425e-05
0.0825193	360.838	6.35463e-05
-0.0696194	345.887	6.22323e-05
-0.227891	329.622	5.0409e-05
-0.387077	312.885	6.3733e-05
-0.544097	295.799	6.57925e-05
-0.699007	277.386	6.82475e-05
-0.855182	257.356	7.42097e-05
-1.01592	234.018	7.53364e-05
-1.17508	207.244	7.25357e-05
-1.33924	174.833	0.000100307
-1.49193	138.553	0.000103188
-1.63311	99.9732	0.00010583
-1.79224	48.6718	0.000122818
-1.95767	-10.0859	0.000113325
-2.11557	-74.8011	0.000129813
-2.27053	-142.919	0.000163808
-2.424425	-207.361	0.000139005
-2.57755	-270.828	0.000155836
-2.73675	-331.315	0.000144742
-2.89861	-384.316	0.000160107
-3.05203	-428.489	0.000160079
-3.211	-467.046	0.000154084
-3.36933	-499.16	0.000144921
-3.52722	-524.739	0.000167087
-3.69112	-547.166	0.000116192
-3.84335	-565.967	0.000187546
-3.99896	-581.014	0.000193657
-4.16314	-594.901	0.000167694
-4.31929	-606.17	0.000121208
-4.47777	-616.298	0.000164136
-4.62518	-623.996	0.000201116
-4.77831	-631.613	0.000207571
-4.93948	-638.631	0.000197437
-5.10086	-645.23	0.000170018
-5.2545	-649.96	0.000191117
-5.41442	-655.663	0.000203651
-5.56708	-659.886	0.000208142
-5.73247	-664.303	0.000233459
-5.89288	-667.701	0.000230569
-6.05753	-671.271	0.00025924
-6.21718	-674.642	0.00026187
-6.37016	-677.236	0.000247303
-6.52952	-679.942	0.000213865
-6.68396	-683.009	0.000274084
-6.84735	-685.468	0.000286006
-7.00348	-687.243	0.000236501
-7.16063	-688.992	0.000265199
-7.31628	-690.687	0.000280062
-7.4762	-692.517	0.000261986
-7.63584	-694.396	0.000317078
-7.79525	-695.968	0.000275281
-7.95587	-696.508	0.000286813
-8.11335	-697.946	0.000279363
-8.27145	-698.826	0.000308265
-8.43609	-699.591	0.000253718
-8.585	-700.19	0.000282888
-8.72665	-700.505	0.000317149
-8.87703	-700.406	0.000289638
-8.9704	-701.025	0.000312311
-8.82634	-701.265	0.000328495
-8.68023	-700.548	0.000297489
-8.53234	-700.439	0.000269453
-8.37788	-700.102	0.000321098
-8.22226	-699.208	0.000257339
-8.06261	-698.336	0.000336378
-7.90415	-696.966	0.000304335
-7.74579	-697.089	0.000286415
-7.58789	-695.186	0.000231179
-7.42921	-694.155	0.000259443
-7.27106	-692.366	0.000255838
-7.1159	-690.546	0.000266537
-6.95724	-689.088	0.000278886
-6.80162	-687.042	0.000245259
-6.6432	-685.125	0.000289433
-6.48903	-682.946	0.00026686
-6.3329	-680.851	0.000237656
-6.1712	-678.156	0.000211604
-6.00929	-675.125	0.000278623
-5.84616	-672.345	0.000184219
-5.68599	-668.741	0.00022869
-5.52684	-664.856	0.000221373
-5.35871	-661.152	0.000220732
-5.20104	-657.375	0.000223106
-5.03913	-653.447	0.00019437
-4.88048	-648.512	0.000201462
-4.72158	-644.068	0.000233849
-4.56097	-638.727	0.000176621
-4.40071	-633.472	0.000201565
-4.2416	-627.929	0.000169089
-4.08068	-621.848	0.000203548
-3.91803	-615.818	0.000222221
-3.75535	-609.029	0.000195817
-3.59699	-602.418	0.00017512
-3.43808	-595.337	0.000168528
-3.28146	-587.881	0.000167206
-3.11803	-580.323	0.000142664
-2.95413	-572.01	0.000173573
-2.79649	-563.693	0.000159706
-2.6303	-554.464	0.00020053
-2.47015	-545.665	0.000167268
-2.32701	-536.68	0.000147218
-2.18354	-528.15	0.000108511
-2.0394	-519.252	0.000114348
-1.89575	-509.843	0.000120616
-1.75283	-500.357	0.000108691
-1.60291	-490.126	9.36491e-05
-1.462	-480.43	0.000102491
-1.3258	-470.127	0.0001104
-1.17939	-459.371	8.13098e-05
-1.03746	-448.153	8.04708e-05
-0.887745	-436.826	7.22471e-05
-0.742575	-424.73	8.48971e-05
-0.597618	-412.662	7.22348e-05
-0.454201	-400.248	7.34411e-05
-0.308733	-387.455	6.21984e-05
-0.165516	-374.586	4.81964e-05
-0.0230092	-360.682	5.09877e-05
0.117717	-346.832	4.89686e-05
0.262804	-331.826	5.51987e-05
0.406311	-316.179	5.66033e-05
0.548593	-300.291	7.11759e-05
0.689777	-282.61	7.15007e-05
0.830941	-264.089	7.76828e-05
0.974214	-242.645	6.20626e-05
1.12135	-218.322	8.30524e-05
1.26304	-191.277	9.75736e-05
1.40973	-157.867	0.000102249
1.55613	-119.872	0.000108523
1.69854	-75.8305	0.000109294
1.83749	-27.2851	0.000139199
1.98066	26.5516	0.000138705
2.13132	88.3339	0.000153916
2.27377	150.892	0.000143089
2.41641	210.652	0.000174735
2.56009	270.311	0.000153195
2.70359	325.24	0.000172937
2.84299	372.65	0.000181552
2.98465	414.474	0.000185306
3.12209	450.984	0.00017986
3.26651	481.692	0.000160171
3.40093	507.85	0.000190002
3.53935	529.565	0.00016515
3.6823	549.196	0.000206341
3.82297	565.28	0.000217959
3.96313	579.354	0.000167508
4.10709	591.589	0.000201489
4.24473	602.096	0.000197904
4.39118	611.985	0.000187724
4.53139	620.221	0.000255509
4.66959	627.466	0.000248504
4.81423	634.653	0.000215031
4.95821	640.696	0.000308158
5.09785	645.829	0.000252843
5.241	651.031	0.000203552
5.38095	655.264	0.000278154
5.52313	659.229	0.000270935
5.66656	663.413	0.000212846
5.80524	666.514	0.000220737
5.94717	670.207	0.000188255
6.09185	673.372	0.000295264
6.23454	676.521	0.000248953
6.37696	678.892	0.000239582
6.51742	681.11	0.00024886
6.66335	683.331	0.000257983
6.80653	685.194	0.000275999
6.95294	688.1	0.000304347
7.0889	689.294	0.000329311
7.22909	691.102	0.000366534
7.37101	692.059	0.00030259
7.51744	693.553	0.00030937
7.66294	695.374	0.000316616
7.81385	696.336	0.000307485
7.95376	697.067	0.000314795
8.09955	698.603	0.000310796
8.24445	698.763	0.000296941
8.38833	699.63	0.000381638
8.52408	700.145	0.000269751
8.66478	700.973	0.000343121
8.80447	700.36	0.000339379
8.94141	701.027	0.000350981
8.99996	701.157	0.000284129