File: data/monolayers/nanoparticles/Ac_CoFe_C/vsm/rescale/AH11_10K_LangevinSAXSscaled.xye
#Executed at: 2018-11-15 15:45:37.5722
#Loaded File	 = ../rawdata/DD226_2_HYST_10K_REPEAT_3.DAT
#Rescale Factor	 = 4.32812
#[[Data]]
#B/T	M/kAm-1	sM/kAm-1	M_raw/memu	sM_raw/memu
-3.50147e-05	161.169	1.60967	37.2376	0.371909
0.21722	138.383	1.47489	31.973	0.34077
0.438609	114.991	1.25365	26.5684	0.289653
0.65507	89.6368	1.34797	20.7103	0.311444
0.872677	59.6397	1.70905	13.7796	0.394872
1.09337	26.9464	1.42811	6.2259	0.329962
1.31474	-5.6593	1.4062	-1.30756	0.324899
1.55164	-38.6261	1.77891	-8.92445	0.411011
1.78101	-73.6675	1.91165	-17.0207	0.441681
2.01165	-106.427	2.0119	-24.5896	0.464843
2.23306	-139.878	1.92047	-32.3184	0.443719
2.46516	-173.264	1.84386	-40.0321	0.426019
2.68358	-206.836	2.02843	-47.7888	0.468663
2.91297	-238.325	2.5236	-55.0643	0.583069
3.1404	-273.814	2.47848	-63.2639	0.572646
3.3705	-306.039	2.53481	-70.7094	0.58566
3.58837	-340.494	2.47099	-78.6701	0.570915
3.81048	-371.621	2.40501	-85.862	0.555671
4.03416	-404.983	2.66009	-93.5702	0.614605
4.27179	-441.262	2.24046	-101.952	0.517651
4.47698	-475.897	2.54908	-109.955	0.588958
4.70785	-507.514	2.33017	-117.26	0.538379
4.93925	-545.604	3.00804	-126.06	0.694999
5.17012	-582.117	2.73325	-134.496	0.631509
5.3935	-615.347	4.46288	-142.174	1.03113
5.62512	-652.667	3.0656	-150.797	0.708299
5.84803	-686.588	2.26046	-158.634	0.522272
6.07292	-721.653	2.89683	-166.736	0.669304
6.30286	-757.989	2.78103	-175.131	0.642549
6.525	-793.196	5.18734	-183.266	1.19852
6.74765	-827.257	3.16658	-191.135	0.73163
6.97503	-860.444	3.37623	-198.803	0.780067
7.19669	-896.23	4.00071	-207.071	0.924352
7.42082	-935.466	3.20431	-216.137	0.740345
7.64277	-968.961	3.03528	-223.876	0.701293
7.86815	-1003.13	3.39318	-231.77	0.783983
8.09486	-1044.39	3.37415	-241.303	0.779587
8.33177	-1078.4	3.67769	-249.161	0.84972
8.5582	-1111.01	3.2671	-256.695	0.754854
8.77533	-1147.95	4.8899	-265.231	1.1298
8.99125	-1180.11	2.91678	-272.66	0.673914
8.80728	-1158.32	3.28108	-267.626	0.758083
8.59114	-1119.57	3.58282	-258.674	0.8278
8.37442	-1081.92	3.57078	-249.973	0.825018
8.14729	-1048.63	3.57153	-242.284	0.825192
7.9001	-1008.49	2.65471	-233.009	0.613363
7.66819	-976.59	3.96605	-225.638	0.916343
7.42972	-932.289	3.10382	-215.403	0.717129
7.19158	-904.403	2.67995	-208.96	0.619195
6.95716	-859.447	3.38868	-198.573	0.782944
6.72103	-822.705	2.82498	-190.084	0.652703
6.4851	-783.647	3.94044	-181.059	0.910428
6.24873	-748.82	3.60604	-173.013	0.833165
6.01978	-710.844	3.28941	-164.238	0.760007
5.77461	-677.711	3.7339	-156.583	0.862705
5.54328	-634.226	3.22827	-146.536	0.745882
5.30835	-601.845	3.21768	-139.054	0.743436
5.08072	-567.347	2.71717	-131.084	0.627794
4.8481	-526.753	2.88678	-121.705	0.666981
4.60924	-493.369	3.69533	-113.992	0.853795
4.3733	-457.134	2.48688	-105.62	0.574586
4.12718	-418.889	2.44963	-96.783	0.565981
3.90127	-382.453	3.01368	-88.3646	0.696303
3.66844	-351.08	2.60586	-81.1161	0.602076
3.43431	-312.689	2.84074	-72.2458	0.656344
3.20545	-278.887	2.35043	-64.436	0.543061
2.97982	-245.352	2.37757	-56.6879	0.549332
2.74645	-208.854	2.26161	-48.2551	0.522538
2.51676	-174.042	2.55219	-40.2118	0.589677
2.27967	-138.894	2.27615	-32.0911	0.525898
2.06077	-107.738	2.12829	-24.8926	0.491734
1.83591	-71.1611	1.69701	-16.4416	0.392089
1.60004	-34.7973	1.62561	-8.0398	0.375591
1.37143	-2.8918	1.55524	-0.668141	0.359333
1.15026	28.6213	1.95426	6.61287	0.451525
0.926154	59.8832	1.60725	13.8358	0.37135
0.701718	86.9973	1.35901	20.1005	0.313995
0.48434	115.265	1.58973	26.6315	0.367303
0.265153	136.816	1.54129	31.611	0.356111
0.0444404	158.571	1.32107	36.6374	0.30523
-0.179846	175.544	1.4351	40.559	0.331575
-0.403425	189.085	6.79112	43.6876	1.56907
-0.619159	217.533	2.01431	50.2603	0.4654
-0.853038	245.949	1.54227	56.8259	0.356338
-1.08424	267.753	1.81564	61.8635	0.419498
-1.31837	292.423	1.59808	67.5636	0.369231
-1.55201	307.661	1.63186	71.0841	0.377037
-1.77289	319.746	1.66883	73.8764	0.385577
-1.99727	322.437	1.54724	74.4981	0.357484
-2.22813	320.221	1.99799	73.9861	0.461631
-2.45225	318.433	2.19751	73.5731	0.507729
-2.67086	315.69	2.26933	72.9392	0.524323
-2.89802	324.553	2.43225	74.987	0.561963
-3.11382	334.052	2.0828	77.1818	0.481224
-3.34251	348.706	2.42558	80.5675	0.560424
-3.56111	366.879	2.2675	84.7664	0.523899
-3.78375	393.422	2.58956	90.8989	0.598311
-4.01835	422.399	2.61803	97.5941	0.604887
-4.26146	454.409	2.36254	104.99	0.545857
-4.49567	482.684	2.52606	111.523	0.583638
-4.72101	514.359	2.51107	118.841	0.580175
-4.95239	553.32	2.84954	127.843	0.658379
-5.18572	587.835	2.8016	135.818	0.647301
-5.41562	622.624	4.14886	143.855	0.958581
-5.6532	660.945	3.29394	152.709	0.761056
-5.8856	691.739	2.52452	159.824	0.583283
-6.11819	728.807	3.13888	168.389	0.725228
-6.34809	765.03	4.32845	176.758	1.00007
-6.57795	799.761	3.93651	184.782	0.90952
-6.81032	838.628	2.63956	193.763	0.609863
-7.04589	875.05	2.38448	202.178	0.550927
-7.26852	912.361	2.94779	210.798	0.681077
-7.50739	948.881	3.0621	219.236	0.70749
-7.74674	988.285	3.1838	228.34	0.735608
-7.97406	1024.31	3.33603	236.664	0.770779
-8.20674	1059.67	3.14177	244.833	0.725896
-8.4298	1094.13	3.79505	252.794	0.876834
-8.64396	1126.64	3.72941	260.307	0.861669
-8.86003	1165.2	2.23025	269.215	0.515294
-8.92618	1172.58	4.15746	270.92	0.960569
-8.70687	1140.26	2.97855	263.454	0.688184
-8.49206	1103.65	3.45644	254.994	0.798599
-8.27239	1064.89	3.49574	246.04	0.80768
-8.03258	1029.63	3.34964	237.892	0.773925
-7.7867	996.427	4.05507	230.221	0.936913
-7.5563	954.083	3.30155	220.438	0.762813
-7.3132	918.099	2.17196	212.124	0.501826
-7.0726	881.809	2.8878	203.739	0.667218
-6.842	843.766	2.77684	194.95	0.641581
-6.60462	802.82	2.89464	185.489	0.668798
-6.3723	771.962	3.37957	178.36	0.780839
-6.13213	730.092	2.53501	168.685	0.585707
-5.89804	697.406	4.76423	161.134	1.10076
-5.66241	657.838	3.11439	151.991	0.71957
-5.42479	622.891	4.07084	143.917	0.940555
-5.1812	582.293	2.17145	134.537	0.501706
-4.95336	549.15	2.86314	126.879	0.661521
-4.71896	511.021	2.76769	118.07	0.639466
-4.48687	474.762	2.87374	109.692	0.663968
-4.25471	441.264	2.74656	101.953	0.634585
-4.02411	403.55	2.66155	93.239	0.614943
-3.79819	367.096	2.29271	84.8164	0.529723
-3.56313	333.052	2.58155	76.9508	0.596459
-3.34052	299.838	2.9958	69.2766	0.692171
-3.10437	266.018	2.01523	61.4628	0.465613
-2.87406	231.499	2.42972	53.4871	0.561379
-2.65163	194.997	2.36797	45.0535	0.547112
-2.42453	161.004	2.04401	37.1995	0.472262
-2.18688	126.717	1.84472	29.2775	0.426216
-1.963525	93.6412	1.85618	21.6355	0.428865
-1.73865	61.0294	1.73078	14.1007	0.399891
-1.51828	29.0844	1.68687	6.71986	0.389746
-1.28963	-5.23199	1.63578	-1.20884	0.377942
-1.05429	-38.6336	1.96638	-8.92617	0.454326
-0.83732	-68.3793	1.65682	-15.7988	0.382803
-0.620651	-96.3634	1.40234	-22.2645	0.324006
-0.399967	-123.012	1.47535	-28.4215	0.340875
-0.17555	-142.692	1.41119	-32.9685	0.326052
0.0426234	-161.072	1.4776	-37.2152	0.341394
0.258749	-180.731	1.44786	-41.7574	0.334523
0.480828	-200.68	1.51237	-46.3666	0.349429
0.702245	-225.644	1.36007	-52.1344	0.31424
0.924937	-251.556	1.68918	-58.1213	0.390281
1.15257	-274.309	1.70733	-63.3782	0.394473
1.37699	-294.176	1.56267	-67.9685	0.361049
1.60412	-309.118	1.47403	-71.4208	0.34057
1.82725	-316.928	1.66696	-73.2252	0.385146
2.0546	-322.017	1.85057	-74.401	0.427569
2.28429	-316.625	1.83319	-73.1552	0.423553
2.50989	-315.783	2.62162	-72.9607	0.605718
2.74584	-317.03	2.6198	-73.2488	0.605297
2.97294	-325.079	1.94088	-75.1085	0.448435
3.20781	-334.307	2.48421	-77.2406	0.573969
3.43369	-354.325	2.68741	-81.8657	0.620917
3.66012	-378.071	2.46365	-87.3522	0.569218
3.88298	-403.85	2.45275	-93.3084	0.566702
4.12061	-431.361	2.75552	-99.6647	0.636656
4.34621	-464.538	2.77727	-107.33	0.641681
4.57264	-494.556	3.00335	-114.266	0.693915
4.81033	-530.76	2.81619	-122.631	0.650672
5.04367	-562.054	3.3594	-129.861	0.77618
5.28156	-600.273	4.61493	-138.691	1.06627
5.52093	-636.837	3.60619	-147.139	0.833199
5.74581	-671.73	2.49668	-155.201	0.576852
5.98295	-708.764	2.48758	-163.758	0.574749
6.21185	-745.326	3.85939	-172.205	0.891699
6.44231	-780.528	3.74273	-180.339	0.864747
6.67565	-810.357	3.55458	-187.231	0.821276
6.89435	-851.976	3.92898	-196.847	0.907779
7.11221	-887.243	4.54437	-204.995	1.04996
7.34488	-921.53	3.87258	-212.917	0.894749
7.58078	-957.471	3.25651	-221.221	0.752407
7.80994	-993.61	3.29014	-229.571	0.760178
8.02991	-1031.37	2.89949	-238.294	0.669919
8.25554	-1067.9	3.4538	-246.735	0.797991
8.47623	-1102.45	4.66975	-254.719	1.07893
8.68688	-1137.99	3.4641	-262.928	0.80037
8.90028	-1163.95	3.32315	-268.928	0.767803
8.897	-1168.3	3.09217	-269.933	0.714437
8.6846	-1134.15	3.98219	-262.042	0.920074
8.47041	-1098.18	4.19955	-253.732	0.970293
8.24796	-1061.03	3.49601	-245.148	0.807743
8.01228	-1028.7	3.30847	-237.678	0.764412
7.78112	-989.455	3.95976	-228.611	0.914891
7.55891	-956.297	3.61621	-220.95	0.835514
7.31875	-913.816	2.88063	-211.135	0.66556
7.0801	-878.208	3.41987	-202.907	0.790152
6.84573	-838.92	2.76251	-193.83	0.638269
6.61077	-805.654	2.92006	-186.144	0.674672
6.37814	-764.385	3.33188	-176.609	0.769821
6.13692	-727.636	2.98189	-168.118	0.688957
5.9093	-690.98	3.29433	-159.649	0.761145
5.6779	-657.441	2.99575	-151.9	0.692159
5.44852	-619.924	3.50954	-143.231	0.81087
5.21613	-586.506	2.98714	-135.51	0.69017
4.98452	-550.831	3.06103	-127.268	0.707241
4.7581	-517.151	3.10676	-119.486	0.717808
4.52951	-480.362	2.47207	-110.986	0.571165
4.29981	-443.433	3.32317	-102.454	0.767808
4.07395	-411.023	2.34547	-94.9656	0.541914
3.84654	-374.695	2.9203	-86.5721	0.674726
3.60495	-335.044	2.34404	-77.4109	0.541583
3.38056	-303.61	2.57132	-70.1483	0.594097
3.14547	-269.265	2.62763	-62.213	0.607106
2.92508	-234.388	2.2351	-54.1547	0.516414
2.68994	-199.647	2.22777	-46.1279	0.514719
2.45704	-164.095	1.97185	-37.9137	0.455589
2.22938	-130.618	1.8654	-30.179	0.430994
2.00427	-97.1107	2.06168	-22.4371	0.476346
1.77041	-64.3103	1.74886	-14.8587	0.404069
1.5453	-32.6748	1.53633	-7.54941	0.354964
1.31566	2.50893	1.75997	0.579681	0.406637
1.09228	34.6465	1.65194	8.00498	0.381676
0.868857	65.1437	1.54071	15.0512	0.355978
0.646744	94.2848	1.29273	21.7842	0.298681
0.422559	121.184	1.19641	27.9993	0.276426
0.201118	143.663	1.50074	33.1928	0.346742
2.28357e-05	162.996	1.31651	37.6597	0.304176