File: data/monolayers/nanoparticles/Ac_CoFe_C/vsm/rescale/AH11_FCw_LangevinSAXSscaled.xye
#Executed at: 2018-11-15 15:45:37.0969
#Loaded File	 = ../rawdata/DD226_2_FCW_100OE.DAT
#Rescale Factor	 = 4.32812
#[[Data]]
#T/K	M/kAm-1	sM/kAm-1	M_raw/memu	sM_raw/memu
10.0041	43.0572	1.12369	9.94823	0.259626
11.0462	43.1899	1.60478	9.97891	0.37078
12.5181	45.1428	1.66458	10.4301	0.384597
14.0586	43.1809	1.1598	9.97682	0.267968
15.5586	43.6175	1.37785	10.0777	0.318347
17.0206	44.4683	1.22555	10.2743	0.28316
18.5125	42.2907	1.22506	9.77115	0.283046
20.0105	43.0756	1.41591	9.9525	0.327141
22.0378	44.207	1.25492	10.2139	0.289946
23.5474	43.9808	1.49055	10.1616	0.344388
25.0225	44.2715	1.57695	10.2288	0.364349
26.5436	43.7327	1.47329	10.1043	0.340399
28.0645	44.0981	1.61	10.1887	0.371987
29.5211	42.8287	1.67374	9.89544	0.386712
31.6379	43.237	1.68329	9.98977	0.388919
33.0262	41.9732	1.63614	9.69779	0.378024
34.5596	44.7889	1.44097	10.3483	0.332932
36.0109	42.6982	1.35065	9.86528	0.312063
37.5307	43.9379	1.51326	10.1517	0.349635
39.0156	43.1589	1.44343	9.97174	0.3335
40.5421	42.4899	1.35419	9.81717	0.312882
42.5172	43.1065	1.19328	9.95963	0.275703
44.009	43.5405	1.29195	10.0599	0.298502
45.5218	43.8424	1.49433	10.1296	0.34526
47.0025	42.2699	1.34583	9.76634	0.31095
48.5424	43.9724	1.42306	10.1597	0.328793
50.0231	42.4005	1.61706	9.79651	0.373618
51.5346	42.5008	1.60431	9.81968	0.370671
53.5042	43.392	1.5076	10.0256	0.348327
55.0007	41.9578	1.47462	9.69422	0.340706
56.5031	42.1176	1.38968	9.73115	0.321081
58.0191	43.3132	1.38754	10.0074	0.320587
59.5078	43.2121	1.54193	9.98403	0.356258
61.0343	42.2968	1.34007	9.77255	0.30962
62.9788	44.7856	1.56389	10.3476	0.361333
64.063	42.0716	1.50426	9.72053	0.347555
65.5256	42.3343	1.52423	9.78122	0.352168
67.0207	42.4576	1.82549	9.8097	0.421775
68.5009	42.4601	1.39902	9.81027	0.323239
70.0399	43.3963	1.40979	10.0266	0.325727
71.5141	42.6987	1.64271	9.86541	0.379543
73.3679	42.8427	1.26222	9.89868	0.291633
74.5572	44.3083	1.28296	10.2373	0.296423
76.019	43.5254	1.40247	10.0564	0.324037
77.5121	43.3909	1.46963	10.0253	0.339553
79.0397	42.8126	1.61589	9.89173	0.373347
80.515	42.8243	1.42593	9.89443	0.329457
82.0313	43.9222	1.08924	10.1481	0.251666
84.0387	43.7088	1.11646	10.0988	0.257955
85.5394	44.3015	1.25538	10.2357	0.290053
87.0317	43.7831	1.3911	10.116	0.321409
88.5002	44.1771	1.49626	10.207	0.345705
90.0413	43.9225	1.51023	10.1482	0.348934
91.6192	43.7616	1.42855	10.111	0.330063
93.0558	44.4777	1.38145	10.2764	0.319179
95.0371	43.749	1.57233	10.1081	0.363283
96.5285	42.936	1.28895	9.92024	0.297809
98.0282	42.8678	1.6821	9.90447	0.388644
99.5501	42.1035	1.40265	9.72788	0.324078
101.024	43.6555	1.45791	10.0865	0.336846
102.546	43.0096	1.44962	9.93724	0.334931
104.721	43.0392	1.28129	9.94407	0.296038
106.018	42.3892	1.23759	9.7939	0.285941
107.517	42.3876	1.17988	9.79352	0.272607
109.024	43.6126	1.40531	10.0766	0.324692
110.539	42.556	1.27994	9.83245	0.295727
112.02	43.9561	1.27086	10.1559	0.293629
113.515	44.1655	1.55588	10.2043	0.359481
115.559	43.2628	1.4506	9.99575	0.335156
117.045	42.1621	1.31252	9.74142	0.303253
118.514	43.0999	1.52119	9.9581	0.351467
120.045	42.4311	1.11346	9.80359	0.257261
121.52	43.1328	1.36713	9.9657	0.315872
123.06	41.428	1.37199	9.57182	0.316995
124.533	42.8227	1.46991	9.89405	0.339619
126.508	43.8606	1.26942	10.1339	0.293296
128.054	42.0323	1.59567	9.71144	0.368674
129.524	42.403	1.40337	9.79708	0.324245
131.012	41.9632	1.44831	9.69548	0.334627
132.552	42.4331	1.44359	9.80404	0.333537
134.053	41.1511	1.42149	9.50783	0.328431
135.96	42.7303	1.31152	9.87271	0.303022
137.055	41.6266	1.41465	9.61769	0.32685
138.504	40.9107	1.29047	9.45229	0.29816
140.059	41.0854	1.81259	9.49266	0.418794
141.538	41.2278	1.51101	9.52556	0.349114
143.028	41.897	1.48433	9.68017	0.342951
144.542	42.9058	1.37486	9.91327	0.317657
146.417	43.1473	1.65703	9.96905	0.382852
147.516	42.1708	1.68062	9.74343	0.388303
149.013	41.661	1.61058	9.62565	0.37212
150.561	43.3019	1.62193	10.0048	0.374742
152.018	42.8917	1.76048	9.90999	0.406754
153.559	41.5707	1.14718	9.60479	0.265053
155.057	41.703	1.32384	9.63536	0.305869
156.844	41.8904	1.48478	9.67866	0.343053
158.04	42.612	1.36958	9.84538	0.316437
159.538	42.7199	1.59596	9.8703	0.368742
161.004	42.4253	1.64315	9.80224	0.379645
162.513	41.8503	1.51998	9.66939	0.351187
164.032	42.8485	1.42437	9.90001	0.329096
165.512	42.7551	1.41846	9.87843	0.327732
167.54	41.2698	1.50599	9.53526	0.347954
169.065	42.2987	1.58235	9.77299	0.365597
170.555	43.6857	1.75008	10.0935	0.404351
172.004	41.9985	1.46737	9.70363	0.339031
173.534	42.5118	1.67487	9.82222	0.386974
175.047	41.8716	1.72731	9.67431	0.39909
176.528	42.1139	1.20667	9.73029	0.278799
178.521	42.1621	1.72816	9.74143	0.399287
180.023	42.517	1.66383	9.82342	0.384422
181.501	43.0954	1.77007	9.95706	0.40897
183.013	43.0719	1.75062	9.95163	0.404475
184.558	40.7895	1.42463	9.42429	0.329156
186.061	42.0761	1.4268	9.72156	0.329658
188.104	40.3562	1.56098	9.32417	0.36066
189.547	40.784	1.25338	9.42302	0.289589
191.025	42.8511	1.27581	9.90062	0.294771
192.519	42.9633	1.56336	9.92654	0.361209
194.034	42.1503	1.59127	9.73869	0.367658
195.547	43.5899	1.55312	10.0713	0.358845
197.024	42.5622	1.46572	9.83387	0.338651
199.017	43.6905	1.84344	10.0946	0.425921
200.512	41.6525	1.43009	9.62368	0.330418
202.034	40.4734	1.34933	9.35127	0.311759
203.525	42.7089	1.69413	9.86777	0.391424
205.012	43.931	1.47849	10.1501	0.341601
206.52	41.7704	1.67972	9.65092	0.388094
208.045	41.3714	1.60874	9.55874	0.371695
209.51	41.6758	1.6216	9.62907	0.374666
211.019	41.5338	1.35157	9.59627	0.312276
212.562	40.3367	1.84688	9.31966	0.426715
214.013	41.5847	1.58848	9.60801	0.367014
215.525	43.3712	1.64427	10.0208	0.379903
217.065	42.468	1.43647	9.81212	0.331892
218.531	43.4147	1.72588	10.0308	0.398759
220.005	40.7083	1.51882	9.40554	0.350918
221.537	41.1526	1.48426	9.50818	0.342934
223.023	40.2607	1.79558	9.30211	0.414862
224.552	40.1853	1.59552	9.2847	0.36864
226.063	42.1402	1.671	9.73637	0.38608
227.56	40.9053	1.63214	9.45105	0.377102
229.016	41.0262	1.35497	9.47897	0.313061
230.553	41.4552	1.73242	9.57811	0.40027
232.051	41.0742	1.65607	9.49007	0.38263
233.513	41.0264	1.70112	9.47903	0.393038
235.019	40.5812	1.57106	9.37617	0.362989
236.513	41.9919	1.77109	9.70211	0.409206
238.045	39.8696	1.59914	9.21175	0.369478
240.276	40.3607	1.54348	9.32522	0.356615
241.531	37.7251	1.87735	8.71626	0.433755
243.026	40.266	1.76147	9.30334	0.406983
244.513	42.0816	1.86002	9.72283	0.429751
246.008	41.221	1.788	9.524	0.413113
247.522	39.1187	1.57308	9.03825	0.363456
249.053	41.0425	1.84491	9.48274	0.426261
251.027	38.6957	1.70373	8.94053	0.393641
252.506	40.5269	1.67207	9.36362	0.386327
254.052	40.0069	1.59792	9.24347	0.369195
255.527	39.0132	1.64414	9.01389	0.379874
257.037	38.6054	1.78107	8.91966	0.41151
258.505	37.9	1.86769	8.75667	0.431525
260.001	40.1329	1.75656	9.27258	0.405848
262.021	38.4851	1.37459	8.89186	0.317595
263.504	38.4261	1.80848	8.87824	0.417843
265.035	36.8878	1.71391	8.52281	0.395995
266.519	38.1958	1.51139	8.82503	0.349203
268.007	40.001	1.43856	9.24211	0.332375
269.535	36.8279	1.92807	8.50898	0.445476
271.567	38.5044	1.93036	8.89633	0.446003
273.017	39.6462	1.72961	9.16013	0.399622
274.558	39.1327	2.3603	9.04148	0.54534
276.019	39.3268	1.70164	9.08634	0.393159
277.538	38.3233	1.98421	8.85449	0.458445
279.059	36.597	2.1471	8.45562	0.49608
280.517	37.7146	1.95475	8.71384	0.451639
282.057	37.5451	1.83064	8.67469	0.422964
283.518	35.7952	1.94827	8.27038	0.450141
285.001	37.1378	1.65199	8.58057	0.381688
286.519	35.1853	1.57294	8.12947	0.363423
288.005	36.0323	1.83321	8.32515	0.423558
289.546	32.6436	2.11279	7.54221	0.488155
291.017	37.2594	1.51086	8.60868	0.34908
292.515	35.5912	1.80514	8.22325	0.417073
294.05	34.2036	1.6221	7.90265	0.374781
295.55	35.712	2.29477	8.25116	0.530199
297.063	34.5544	1.48151	7.98369	0.342299
298.545	34.5649	1.92646	7.98611	0.445103
300.003	34.1087	1.87545	7.8807	0.433317
301.525	37.0707	1.79672	8.56508	0.415128
303.528	35.326	1.79817	8.16197	0.415462
305.047	35.1009	1.9	8.10997	0.43899
306.504	33.3132	1.85355	7.69691	0.428256
308.001	33.9735	2.033	7.84947	0.469718
309.545	31.8002	1.85255	7.34734	0.428025
311.017	31.6202	2.18204	7.30575	0.504155
313.187	33.625	1.74839	7.76896	0.40396
314.518	31.8353	2.0867	7.35545	0.482126
316.041	32.0875	1.73214	7.41372	0.400206
317.525	35.6989	1.83833	8.24813	0.424741
319.072	31.3388	1.75257	7.24073	0.404925
320.533	32.0581	1.77201	7.40694	0.409417
322.013	32.6577	1.9255	7.54547	0.44488
324.008	32.5377	1.82719	7.51775	0.422167
325.534	32.4882	2.05917	7.5063	0.475765
327.061	32.8552	1.8273	7.59109	0.422191
328.503	33.4485	1.99657	7.72818	0.461301
330.022	30.2435	2.16163	6.98766	0.499437
331.515	31.8557	1.83773	7.36016	0.424602
333.051	31.8402	2.08243	7.35659	0.48114
335.026	28.6604	1.91843	6.62191	0.443249
336.505	29.8114	1.62057	6.88784	0.374427
338.013	31.0652	2.03319	7.17753	0.469763
339.515	29.2562	1.52244	6.75956	0.351755
341.035	31.385	2.04819	7.25142	0.473229
342.516	27.7364	1.64757	6.40842	0.380665
344.394	27.1843	2.09893	6.28086	0.484952
345.514	31.0697	2.18352	7.17856	0.504497
347.005	26.8407	1.77316	6.20147	0.409683
348.554	28.2746	1.66442	6.53277	0.38456
349.758	28.1888	2.06322	6.51293	0.4767