File: data/looselyPackedNP/nanoparticles/vsm/ios-11/finalPMK18.xy
# B /   T  			M / kAm-1 			sM / kAm-1
-0.0008	-0.995558	0.104411
0.001	3.03435	0.104411
0.003	6.7929	0.104411
0.005	10.7306	0.104411
0.01	20.1462	0.104411
0.015	29.9199	0.104411
0.02	39.0629	0.104411
0.025	47.7424	0.104411
0.03	57.0189	0.104411
0.035	64.3125	0.104411
0.04	72.395	0.104411
0.045	79.3936	0.104411
0.05	86.2784	0.104411
0.055	92.5187	0.104411
0.0599	96.7127	0.104411
0.0649	104.594	0.104411
0.0699	107.401	0.104411
0.0749	112.834	0.104411
0.08	117.659	0.104411
0.085	121.6	0.104411
0.09	125.282	0.104411
0.095	128.546	0.104411
0.1	132.63	0.104411
0.2	163.034	0.104411
0.3	183.493	0.104411
0.4	191.698	0.104411
0.5	197.509	0.104411
0.6001	201.126	0.104411
0.7001	205.514	0.104411
0.8002	207.462	0.104411
0.9001	209.658	0.104411
1.0002	212.57	0.104411
1.2002	216.742	0.104411
1.4002	219.207	0.104411
1.6002	222.97	0.104411
1.8002	224.846	0.104411
1.8006	225.703	0.104411
1.6007	223.274	0.104411
1.4005	219.738	0.104411
1.2004	216.233	0.104411
1.0004	212.031	0.104411
0.9003	209.366	0.104411
0.8003	206.918	0.104411
0.7002	204.288	0.104411
0.6002	201.316	0.104411
0.5002	196.655	0.104411
0.4002	191.5	0.104411
0.3001	183.529	0.104411
0.2002	169.885	0.104411
0.1001	134.546	0.104411
0.095	130.903	0.104411
0.09	127.491	0.104411
0.085	123.875	0.104411
0.08	119.909	0.104411
0.075	115.189	0.104411
0.07	110.399	0.104411
0.065	105.475	0.104411
0.06	99.9912	0.104411
0.055	94.3379	0.104411
0.05	87.9704	0.104411
0.045	80.9363	0.104411
0.04	73.809	0.104411
0.035	65.8688	0.104411
0.03	57.7848	0.104411
0.025	49.2715	0.104411
0.02	40.0781	0.104411
0.015	30.737	0.104411
0.01	20.9262	0.104411
0.005	10.8982	0.104411
0.003	7.00164	0.104411
0.001	3.10342	0.104411
-0.0008	-1.0399	0.104411
-0.0028	-4.99411	0.104411
-0.0048	-9.00259	0.104411
-0.0098	-19.1188	0.104411
-0.0148	-28.6566	0.104411
-0.0198	-38.1418	0.104411
-0.0248	-47.3607	0.104411
-0.0298	-55.8621	0.104411
-0.0348	-64.4024	0.104411
-0.0398	-72.2202	0.104411
-0.0448	-79.5395	0.104411
-0.0498	-86.3988	0.104411
-0.0548	-92.5373	0.104411
-0.0598	-98.6385	0.104411
-0.0648	-104.103	0.104411
-0.0699	-109.583	0.104411
-0.0749	-114.206	0.104411
-0.0799	-118.784	0.104411
-0.0848	-122.541	0.104411
-0.0898	-126.382	0.104411
-0.0948	-129.907	0.104411
-0.0999	-133.152	0.104411
-0.1997	-168.805	0.104411
-0.2998	-182.65	0.104411
-0.3998	-190.518	0.104411
-0.4999	-196.14	0.104411
-0.5999	-200.009	0.104411
-0.6999	-203.707	0.104411
-0.7999	-206.368	0.104411
-0.8999	-208.942	0.104411
-0.9999	-211.327	0.104411
-1.2	-214.653	0.104411
-1.3999	-218.058	0.104411
-1.5999	-221.985	0.104411
-1.8001	-224.357	0.104411
-1.8004	-224.006	0.104411
-1.6003	-220.646	0.104411
-1.4003	-218.58	0.104411
-1.2002	-214.853	0.104411
-1.0001	-210.98	0.104411
-0.9001	-208.432	0.104411
-0.8	-205.39	0.104411
-0.7001	-203.123	0.104411
-0.6	-199.826	0.104411
-0.5	-195.122	0.104411
-0.3999	-190.008	0.104411
-0.3	-182.2	0.104411
-0.1999	-167.6	0.104411
-0.1	-133.105	0.104411
-0.0949	-130.013	0.104411
-0.0899	-126.374	0.104411
-0.0849	-122.606	0.104411
-0.0798	-118.383	0.104411
-0.0749	-113.884	0.104411
-0.0699	-109.062	0.104411
-0.0649	-104.012	0.104411
-0.0598	-98.5774	0.104411
-0.0548	-92.5712	0.104411
-0.0498	-85.9747	0.104411
-0.0448	-79.2037	0.104411
-0.0398	-71.8622	0.104411
-0.035	-64.6543	0.104411
-0.0298	-55.9927	0.104411
-0.0248	-47.4219	0.104411
-0.0198	-38.2114	0.104411
-0.0148	-28.7583	0.104411
-0.01	-19.459	0.104411
-0.005	-9.50218	0.104411
-0.0027	-5.21588	0.104411
-0.0008	-1.17899	0.104411
0.001	2.84898	0.104411
0.003	6.79301	0.104411
0.005	10.8202	0.104411
0.01	20.721	0.104411
0.015	30.3164	0.104411
0.02	39.7966	0.104411
0.025	48.7695	0.104411
0.03	57.437	0.104411
0.035	65.4396	0.104411
0.04	73.0914	0.104411
0.045	80.6497	0.104411
0.05	87.2054	0.104411
0.055	93.3032	0.104411
0.06	99.5044	0.104411
0.065	104.569	0.104411
0.0699	109.518	0.104411
0.075	114.738	0.104411
0.08	118.337	0.104411
0.085	122.716	0.104411
0.09	126.67	0.104411
0.095	129.825	0.104411
0.1	133.251	0.104411
0.2	168.186	0.104411
0.3	181.768	0.104411
0.4001	189.603	0.104411
0.5	194.685	0.104411
0.6001	198.734	0.104411
0.7	202.411	0.104411
0.8002	204.278	0.104411
0.9001	207.474	0.104411
1.0002	209.721	0.104411
1.2002	214.259	0.104411
1.4002	216.697	0.104411
1.6002	220.983	0.104411
1.8002	223.297	0.104411
1.9002	224.146	0.104411