File: data/looselyPackedNP/nanoparticles/vsm/ios-11/PMK18_20muL_4cmTeflonPara_BGLinSub_rescale.xye
#Extracted data using VSM extraction tool v1.1
#Loaded parameter file: extractVSM.dat
#Desired unit of B: T
#Desired unit of M: memu
#Reading column for B: Applied Field
#Reading column for M: Raw Signal Mx
#Estimate noise level: 5e-3 memu
#Loading data from file: PMK18_20muL_4cmTeflonPara-Hys-00.VHD
#Save data to file: PMK18_20muL_4cmTeflonPara.xye
#Extraction performed at: Fri Jul 13 15:50:04 2018
#Unit of B in data: Oe
#Changing unit by multiplying with factor: 0.0001
#Unit of M in data: memu
#Applied image correction factors to M by linear interpolation of following values
#14999.0	1.0
#15248.0	1.000208
#15498.0	1.000487
#15748.0	1.000758
#15998.0	1.001102
#16248.0	1.001455
#16498.0	1.001726
#16747.0	1.002143
#16997.0	1.002623
#17248.0	1.003177
#17498.0	1.003731
#17748.0	1.004149
#17997.0	1.004841
#18247.0	1.005607
#18497.0	1.00631
#18746.0	1.007142
#18997.0	1.007912

#Substracted file: PMK18_20muL_4cmTeflonPara.xye
#Using Slope: -1.729
#Rescaled file: PMK18_20muL_4cmTeflonPara_BGLinSub.xye
#Rescale Factor: 0.0267605
#Sigma Scalefactor: 0.0
#B / T	M_scaled / kAm-1	sM_scaled / kAm-1	M_prescaling / memu	sM_prescaling / memu	M_raw / memu	sM_raw / memu
-0.0008	-0.890775	-0.186843	-0.02383756	0.005	-0.02245436	0.005
0.002	4.49979	0.186843	0.120417	0.005	0.1169585	0.005
0.005	9.60118	0.186843	0.2569322	0.005	0.2482872	0.005
0.0125	22.4891	0.186843	0.6018186	0.00500001	0.5802061	0.005
0.02	34.9515	0.186843	0.93532	0.00500002	0.90074	0.005
0.0275	47.0102	0.186844	1.25802	0.00500004	1.210468	0.005
0.035	57.5435	0.186845	1.53989	0.00500006	1.479378	0.005
0.0425	67.889	0.186846	1.81674	0.00500009	1.743259	0.005
0.05	77.1975	0.186847	2.065842	0.00500012	1.979392	0.005
0.0574	84.4886	0.186849	2.26096	0.00500016	2.161712	0.005
0.0649	93.5855	0.18685	2.50439	0.00500021	2.392181	0.005
0.0724	98.4935	0.186852	2.63573	0.00500026	2.510553	0.005
0.08	105.275	0.186854	2.81722	0.00500031	2.6789	0.005
0.0874	111.003	0.186857	2.97048	0.00500037	2.819368	0.005
0.095	115.016	0.186859	3.07789	0.00500044	2.913633	0.005
0.15	137.684	0.186884	3.684499	0.0050011	3.425149	0.005
0.3	164.18	0.187007	4.393536	0.00500441	3.874836	0.005
0.45	174.082	0.187213	4.65853	0.00500991	3.88048	0.005
0.6001	179.957	0.187501	4.81575	0.00501761	3.778173	0.005
0.7501	184.722	0.18787	4.94326	0.00502749	3.646336	0.005
0.9001	187.592	0.18832	5.02005	0.00503954	3.463773	0.005
1.1001	191.636	0.189046	5.12828	0.00505895	3.226204	0.005
1.4002	196.135	0.190399	5.24868	0.00509516	2.827733	0.005
1.7002	200.651	0.192063	5.36953	0.00513969	2.423497	0.005
1.8006	202.364	0.192688	5.41536	0.00515642	2.290969	0.005
1.5005	198.216	0.190921	5.30437	0.00510913	2.709991	0.005
1.2004	193.474	0.189463	5.17745	0.00507012	3.101963	0.005
0.9503	188.267	0.188489	5.03812	0.00504406	3.395055	0.005
0.8003	185.14	0.188012	4.95443	0.00503129	3.570712	0.005
0.6502	181.62	0.187615	4.86025	0.00502067	3.736055	0.005
0.5002	175.957	0.1873	4.70869	0.00501224	3.843846	0.005
0.3501	168.151	0.187067	4.49981	0.005006	3.894492	0.005
0.2002	152.004	0.186916	4.0677	0.00500196	3.721556	0.005
0.0975	118.518	0.18686	3.17161	0.00500047	3.003028	0.005
0.09	114.072	0.186857	3.05263	0.0050004	2.897023	0.005
0.0825	109.062	0.186855	2.91855	0.00500033	2.775911	0.005
0.075	103.065	0.186853	2.758071	0.00500028	2.628396	0.005
0.0674	96.8933	0.186851	2.59291	0.00500022	2.476376	0.005
0.06	89.467	0.186849	2.394181	0.00500018	2.290441	0.005
0.0525	81.6655	0.186848	2.18541	0.00500014	2.094637	0.005
0.045	72.4177	0.186846	1.937932	0.0050001	1.860127	0.005
0.0375	62.7249	0.186845	1.67855	0.00500007	1.613712	0.005
0.03	51.7029	0.186844	1.383594	0.00500004	1.331724	0.005
0.0225	40.013	0.186844	1.07077	0.00500002	1.031864	0.005
0.015	27.5019	0.186843	0.7359651	0.00500001	0.7100301	0.005
0.0075	14.3581	0.186843	0.384229	0.005	0.371261	0.005
0.003	6.26471	0.186843	0.167647	0.005	0.1624598	0.005
0.0	0.839299	0.186843	0.02246006	0.005	0.02246006	0.005
-0.0028	-4.46848	-0.186843	-0.119579	0.005	-0.1147374	0.005
-0.0073	-12.5117	-0.186843	-0.3348203	0.005	-0.3221986	0.005
-0.0148	-25.6405	-0.186843	-0.6861517	0.00500001	-0.6605625	0.005
-0.0223	-38.3655	-0.186844	-1.02668	0.00500002	-0.988123	0.005
-0.0298	-49.9825	-0.186844	-1.33756	0.00500004	-1.286033	0.005
-0.0373	-61.129	-0.186845	-1.63584	0.00500007	-1.57135	0.005
-0.0448	-71.1679	-0.186846	-1.90449	0.0050001	-1.827028	0.005
-0.0523	-80.2609	-0.186848	-2.14782	0.00500013	-2.057394	0.005
-0.0598	-88.2567	-0.186849	-2.36179	0.00500018	-2.258397	0.005
-0.0674	-95.6988	-0.186851	-2.56095	0.00500022	-2.444412	0.005
-0.0749	-102.186	-0.186853	-2.73455	0.00500027	-2.605043	0.005
-0.0823	-108.026	-0.186855	-2.89083	0.00500033	-2.748536	0.005
-0.0898	-113.081	-0.186857	-3.02609	0.0050004	-2.870826	0.005
-0.0974	-117.838	-0.18686	-3.1534	0.00500046	-2.984992	0.005
-0.1997	-151.038	-0.186916	-4.04186	0.00500195	-3.696577	0.005
-0.3498	-167.464	-0.187067	-4.48143	0.00500599	-3.876622	0.005
-0.4999	-175.496	-0.1873	-4.69636	0.00501223	-3.832028	0.005
-0.6499	-181.027	-0.187614	-4.84438	0.00502065	-3.720701	0.005
-0.7999	-184.648	-0.188011	-4.94127	0.00503125	-3.558242	0.005
-0.9499	-187.772	-0.188488	-5.02488	0.00504402	-3.382502	0.005
-1.2	-192.061	-0.189461	-5.13964	0.00507007	-3.064844	0.005
-1.5	-196.636	-0.190918	-5.26207	0.00510906	-2.668563	0.005
-1.8001	-201.153	-0.192685	-5.38295	0.00515633	-2.259615	0.005
-1.7004	-199.006	-0.192064	-5.32549	0.00513972	-2.379225	0.005
-1.4003	-195.574	-0.190399	-5.23366	0.00509518	-2.812543	0.005
-1.1002	-189.912	-0.189046	-5.08215	0.00505896	-3.179904	0.005
-0.9001	-186.494	-0.18832	-4.99068	0.00503954	-3.434409	0.005
-0.7501	-182.774	-0.18787	-4.89111	0.00502749	-3.594188	0.005
-0.6	-178.794	-0.187501	-4.784623	0.00501761	-3.747223	0.005
-0.45	-173.163	-0.187213	-4.63392	0.00500991	-3.855869	0.005
-0.3	-163.023	-0.187007	-4.362586	0.00500441	-3.843886	0.005
-0.1499	-139.414	-0.186884	-3.73079	0.0050011	-3.471611	0.005
-0.0949	-116.329	-0.186859	-3.11301	0.00500044	-2.948928	0.005
-0.0874	-111.344	-0.186857	-2.97962	0.00500037	-2.828506	0.005
-0.0798	-105.923	-0.186854	-2.83456	0.00500031	-2.696589	0.005
-0.0724	-99.6689	-0.186852	-2.66719	0.00500026	-2.542009	0.005
-0.0649	-93.0649	-0.18685	-2.49046	0.00500021	-2.37825	0.005
-0.0573	-85.5879	-0.186849	-2.29037	0.00500016	-2.191301	0.005
-0.0498	-76.9258	-0.186847	-2.05857	0.00500012	-1.972468	0.005
-0.0423	-67.7386	-0.186846	-1.81272	0.00500009	-1.739582	0.005
-0.035	-57.8494	-0.186845	-1.54808	0.00500006	-1.487562	0.005
-0.0273	-46.2771	-0.186844	-1.2384	0.00500004	-1.191196	0.005
-0.0198	-34.1896	-0.186843	-0.9149311	0.00500002	-0.8806969	0.005
-0.0125	-21.8478	-0.186843	-0.584657	0.00500001	-0.5630445	0.005
-0.005	-8.50207	-0.186843	-0.227519	0.005	-0.2188744	0.005
-0.0018	-2.77383	-0.186843	-0.07422903	0.005	-0.07111683	0.005
0.001	2.54912	0.186843	0.06821579	0.005	0.06648679	0.005
0.004	7.93203	0.186843	0.212265	0.005	0.205349	0.005
0.01	18.5401	0.186843	0.4961411	0.005	0.4788511	0.005
0.0175	31.3349	0.186843	0.8385361	0.00500002	0.8082786	0.005
0.025	43.6364	0.186844	1.167732	0.00500003	1.124507	0.005
0.0325	55.1867	0.186845	1.47682	0.00500005	1.420629	0.005
0.04	65.3985	0.186846	1.750095	0.00500008	1.680935	0.005
0.0475	75.0425	0.186847	2.00817	0.00500011	1.926046	0.005
0.055	83.4829	0.186848	2.23404	0.00500015	2.138949	0.005
0.0625	91.2692	0.18685	2.44241	0.00500019	2.334345	0.005
0.0699	97.9912	0.186852	2.62229	0.00500024	2.501434	0.005
0.0775	104.344	0.186854	2.79229	0.00500029	2.65829	0.005
0.085	109.8	0.186856	2.938308	0.00500035	2.791343	0.005
0.0925	114.641	0.186858	3.06784	0.00500042	2.907906	0.005
0.1	119.226	0.186861	3.19055	0.00500049	3.017648	0.005
0.25	157.469	0.186957	4.213955	0.00500306	3.781705	0.005
0.4001	169.647	0.187136	4.53984	0.00500784	3.84807	0.005
0.5501	176.575	0.187396	4.72523	0.00501481	3.774112	0.005
0.7	181.107	0.187738	4.846524	0.00502395	3.636224	0.005
0.8501	184.751	0.188161	4.94403	0.00503529	3.474211	0.005
1.0002	187.648	0.188666	5.02155	0.00504878	3.292204	0.005
1.3001	192.738	0.189912	5.15777	0.00508215	2.909897	0.005
1.6002	197.829	0.191474	5.294	0.00512394	2.524462	0.005
1.9002	201.17	0.193341	5.38339	0.0051739	2.081479	0.005