File: data/monolayers/nanoparticles/Ac_CoFe_C_2/edx/data/DD130_9_YF45_1.txt
#FORMAT      : EMSA/MAS Spectral Data File
#VERSION     : 1.0
#TITLE       : Spectrum 2
#DATE        : 04-DEC-2018
#TIME        : 11:00
#OWNER       :
#NPOINTS     : 2048.
#NCOLUMNS    : 1.
#XUNITS      : keV
#YUNITS      : counts
#DATATYPE    : XY
#XPERCHAN    : 0.0100000
#OFFSET      : -0.200000
#SIGNALTYPE  : EDS
#CHOFFSET    : 20.0000
#LIVETIME    : 100
#REALTIME    : 124.31
#BEAMKV      : 20.0000
#PROBECUR    : 0.000000
#MAGCAM      : 1891.00
#XTILTSTGE   : 0.0
#AZIMANGLE   : 0.0
#ELEVANGLE   : 35.0
#XPOSITION mm: 0.0000
#YPOSITION mm: 0.0000
#ZPOSITION mm: 0.0000
##OXINSTPT   : 5
##OXINSTSTROB: 49.18
##OXINSTELEMS: 6,8,11,14,26,27
##OXINSTLABEL: 14, 1.740, Si
##OXINSTLABEL: 8, 0.525, O
##OXINSTLABEL: 26, 6.404, Fe
##OXINSTLABEL: 26, 7.058, Fe
##OXINSTLABEL: 26, 0.705, Fe
##OXINSTLABEL: 26, 0.628, Fe
##OXINSTLABEL: 27, 6.930, Co
##OXINSTLABEL: 27, 7.650, Co
##OXINSTLABEL: 27, 0.776, Co
##OXINSTLABEL: 27, 0.694, Co
##OXINSTLABEL: 27, 0.678, Co
##OXINSTLABEL: 6, 0.277, C
##OXINSTLABEL: 11, 1.041, Na
#SPECTRUM    : Spectral Data Starts Here
-0.20000, 0.
-0.13000, 2.
-0.06000, 36.
0.01000, 5471.
0.08000, 182.
0.15000, 48.
0.22000, 82.
0.29000, 186.
0.36000, 165.
0.43000, 147.
0.50000, 627.
0.57000, 256.
0.64000, 158.
0.71000, 422.
0.78000, 237.
0.85000, 93.
0.92000, 80.
0.99000, 97.
1.06000, 124.
1.13000, 108.
1.20000, 107.
1.27000, 139.
1.34000, 136.
1.41000, 138.
1.48000, 192.
1.55000, 198.
1.62000, 245.
1.69000, 6009.
1.76000, 15859.
1.83000, 1641.
1.90000, 224.
1.97000, 46.
2.04000, 58.
2.11000, 51.
2.18000, 45.
2.25000, 56.
2.32000, 51.
2.39000, 51.
2.46000, 54.
2.53000, 48.
2.60000, 51.
2.67000, 56.
2.74000, 49.
2.81000, 50.
2.88000, 54.
2.95000, 50.
3.02000, 47.
3.09000, 53.
3.16000, 45.
3.23000, 41.
3.30000, 40.
3.37000, 39.
3.44000, 60.
3.51000, 43.
3.58000, 53.
3.65000, 55.
3.72000, 50.
3.79000, 52.
3.86000, 42.
3.93000, 38.
4.00000, 42.
4.07000, 46.
4.14000, 37.
4.21000, 45.
4.28000, 30.
4.35000, 42.
4.42000, 42.
4.49000, 42.
4.56000, 40.
4.63000, 31.
4.70000, 35.
4.77000, 36.
4.84000, 38.
4.91000, 34.
4.98000, 25.
5.05000, 28.
5.12000, 40.
5.19000, 32.
5.26000, 27.
5.33000, 27.
5.40000, 26.
5.47000, 26.
5.54000, 36.
5.61000, 24.
5.68000, 24.
5.75000, 29.
5.82000, 31.
5.89000, 33.
5.96000, 22.
6.03000, 22.
6.10000, 34.
6.17000, 36.
6.24000, 29.
6.31000, 132.
6.38000, 387.
6.45000, 291.
6.52000, 68.
6.59000, 28.
6.66000, 25.
6.73000, 32.
6.80000, 36.
6.87000, 101.
6.94000, 136.
7.01000, 124.
7.08000, 79.
7.15000, 35.
7.22000, 25.
7.29000, 18.
7.36000, 13.
7.43000, 22.
7.50000, 20.
7.57000, 28.
7.64000, 36.
7.71000, 28.
7.78000, 18.
7.85000, 16.
7.92000, 19.
7.99000, 13.
8.06000, 16.
8.13000, 11.
8.20000, 12.
8.27000, 22.
8.34000, 13.
8.41000, 19.
8.48000, 12.
8.55000, 13.
8.62000, 17.
8.69000, 13.
8.76000, 17.
8.83000, 16.
8.90000, 13.
8.97000, 14.
9.04000, 12.
9.11000, 17.
9.18000, 11.
9.25000, 17.
9.32000, 12.
9.39000, 15.
9.46000, 9.
9.53000, 16.
9.60000, 12.
9.67000, 14.
9.74000, 15.
9.81000, 14.
9.88000, 13.
9.95000, 10.
10.02000, 10.
10.09000, 10.
10.16000, 9.
10.23000, 11.
10.30000, 14.
10.37000, 15.
10.44000, 9.
10.51000, 7.
10.58000, 10.
10.65000, 9.
10.72000, 8.
10.79000, 8.
10.86000, 8.
10.93000, 6.
11.00000, 8.
11.07000, 10.
11.14000, 9.
11.21000, 5.
11.28000, 7.
11.35000, 11.
11.42000, 10.
11.49000, 8.
11.56000, 9.
11.63000, 8.
11.70000, 7.
11.77000, 8.
11.84000, 9.
11.91000, 6.
11.98000, 10.
12.05000, 5.
12.12000, 9.
12.19000, 8.
12.26000, 7.
12.33000, 4.
12.40000, 8.
12.47000, 7.
12.54000, 8.
12.61000, 5.
12.68000, 9.
12.75000, 5.
12.82000, 9.
12.89000, 8.
12.96000, 6.
13.03000, 7.
13.10000, 5.
13.17000, 7.
13.24000, 5.
13.31000, 5.
13.38000, 6.
13.45000, 8.
13.52000, 4.
13.59000, 6.
13.66000, 7.
13.73000, 3.
13.80000, 4.
13.87000, 6.
13.94000, 4.
14.01000, 7.
14.08000, 5.
14.15000, 3.
14.22000, 5.
14.29000, 4.
14.36000, 10.
14.43000, 5.
14.50000, 5.
14.57000, 4.
14.64000, 6.
14.71000, 2.
14.78000, 4.
14.85000, 3.
14.92000, 3.
14.99000, 3.
15.06000, 4.
15.13000, 4.
15.20000, 3.
15.27000, 3.
15.34000, 2.
15.41000, 4.
15.48000, 7.
15.55000, 3.
15.62000, 3.
15.69000, 4.
15.76000, 3.
15.83000, 6.
15.90000, 1.
15.97000, 3.
16.04000, 3.
16.11000, 3.
16.18000, 3.
16.25000, 2.
16.32000, 2.
16.39000, 3.
16.46000, 5.
16.53000, 4.
16.60000, 5.
16.67000, 1.
16.74000, 2.
16.81000, 4.
16.88000, 0.
16.95000, 3.
17.02000, 3.
17.09000, 1.
17.16000, 0.
17.23000, 1.
17.30000, 1.
17.37000, 2.
17.44000, 2.
17.51000, 0.
17.58000, 2.
17.65000, 2.
17.72000, 1.
17.79000, 2.
17.86000, 2.
17.93000, 1.
18.00000, 2.
18.07000, 0.
18.14000, 1.
18.21000, 2.
18.28000, 2.
18.35000, 3.
18.42000, 1.
18.49000, 1.
18.56000, 1.
18.63000, 0.
18.70000, 2.
18.77000, 0.
18.84000, 1.
18.91000, 0.
18.98000, 1.
19.05000, 2.
19.12000, 0.
19.19000, 0.
19.26000, 1.
19.33000, 0.
19.40000, 0.
19.47000, 1.
19.54000, 0.
19.61000, 0.
19.68000, 0.
19.75000, 0.
19.82000, 0.
19.89000, 0.
19.96000, 0.
20.03000, 0.
20.10000, 0.
20.17000, 0.
20.24000, 0.
20.27000, 0.
#ENDOFDATA   :