File: data/monolayers/nanoparticles/Ac_CoFe_C_2/edx/data/DD130_9_YF45_3.txt
#FORMAT      : EMSA/MAS Spectral Data File
#VERSION     : 1.0
#TITLE       : Spectrum 1
#DATE        : 04-DEC-2018
#TIME        : 11:05
#OWNER       :
#NPOINTS     : 2048.
#NCOLUMNS    : 1.
#XUNITS      : keV
#YUNITS      : counts
#DATATYPE    : XY
#XPERCHAN    : 0.0100000
#OFFSET      : -0.200000
#SIGNALTYPE  : EDS
#CHOFFSET    : 20.0000
#LIVETIME    : 100
#REALTIME    : 113.001
#BEAMKV      : 20.0000
#PROBECUR    : 0.000000
#MAGCAM      : 1390.00
#XTILTSTGE   : 0.0
#AZIMANGLE   : 0.0
#ELEVANGLE   : 35.0
#XPOSITION mm: 0.0000
#YPOSITION mm: 0.0000
#ZPOSITION mm: 0.0000
##OXINSTPT   : 5
##OXINSTSTROB: 49.08
##OXINSTELEMS: 6,8,11,14,26,27
##OXINSTLABEL: 14, 1.740, Si
##OXINSTLABEL: 26, 6.404, Fe
##OXINSTLABEL: 26, 7.058, Fe
##OXINSTLABEL: 26, 0.705, Fe
##OXINSTLABEL: 26, 0.628, Fe
##OXINSTLABEL: 8, 0.525, O
##OXINSTLABEL: 27, 6.930, Co
##OXINSTLABEL: 27, 7.650, Co
##OXINSTLABEL: 27, 0.776, Co
##OXINSTLABEL: 27, 0.694, Co
##OXINSTLABEL: 27, 0.678, Co
##OXINSTLABEL: 6, 0.277, C
##OXINSTLABEL: 11, 1.041, Na
#SPECTRUM    : Spectral Data Starts Here
-0.20000, 0.
-0.13000, 1.
-0.06000, 41.
0.01000, 5308.
0.08000, 153.
0.15000, 55.
0.22000, 83.
0.29000, 236.
0.36000, 35.
0.43000, 86.
0.50000, 1524.
0.57000, 540.
0.64000, 271.
0.71000, 831.
0.78000, 342.
0.85000, 60.
0.92000, 46.
0.99000, 60.
1.06000, 96.
1.13000, 49.
1.20000, 50.
1.27000, 57.
1.34000, 58.
1.41000, 71.
1.48000, 81.
1.55000, 89.
1.62000, 84.
1.69000, 350.
1.76000, 834.
1.83000, 170.
1.90000, 89.
1.97000, 93.
2.04000, 85.
2.11000, 85.
2.18000, 79.
2.25000, 80.
2.32000, 88.
2.39000, 86.
2.46000, 78.
2.53000, 82.
2.60000, 87.
2.67000, 82.
2.74000, 78.
2.81000, 79.
2.88000, 83.
2.95000, 81.
3.02000, 63.
3.09000, 67.
3.16000, 62.
3.23000, 71.
3.30000, 66.
3.37000, 62.
3.44000, 66.
3.51000, 64.
3.58000, 60.
3.65000, 71.
3.72000, 63.
3.79000, 69.
3.86000, 66.
3.93000, 53.
4.00000, 55.
4.07000, 52.
4.14000, 49.
4.21000, 44.
4.28000, 58.
4.35000, 62.
4.42000, 48.
4.49000, 43.
4.56000, 53.
4.63000, 59.
4.70000, 53.
4.77000, 53.
4.84000, 49.
4.91000, 45.
4.98000, 45.
5.05000, 48.
5.12000, 41.
5.19000, 42.
5.26000, 49.
5.33000, 40.
5.40000, 42.
5.47000, 38.
5.54000, 45.
5.61000, 41.
5.68000, 36.
5.75000, 35.
5.82000, 29.
5.89000, 38.
5.96000, 40.
6.03000, 35.
6.10000, 36.
6.17000, 34.
6.24000, 71.
6.31000, 527.
6.38000, 1409.
6.45000, 1087.
6.52000, 216.
6.59000, 33.
6.66000, 33.
6.73000, 29.
6.80000, 90.
6.87000, 344.
6.94000, 557.
7.01000, 347.
7.08000, 242.
7.15000, 90.
7.22000, 27.
7.29000, 23.
7.36000, 26.
7.43000, 26.
7.50000, 30.
7.57000, 56.
7.64000, 71.
7.71000, 55.
7.78000, 21.
7.85000, 21.
7.92000, 18.
7.99000, 17.
8.06000, 17.
8.13000, 18.
8.20000, 19.
8.27000, 18.
8.34000, 18.
8.41000, 15.
8.48000, 16.
8.55000, 19.
8.62000, 16.
8.69000, 17.
8.76000, 14.
8.83000, 16.
8.90000, 20.
8.97000, 13.
9.04000, 18.
9.11000, 14.
9.18000, 15.
9.25000, 13.
9.32000, 15.
9.39000, 14.
9.46000, 13.
9.53000, 18.
9.60000, 12.
9.67000, 16.
9.74000, 8.
9.81000, 10.
9.88000, 10.
9.95000, 14.
10.02000, 11.
10.09000, 14.
10.16000, 16.
10.23000, 14.
10.30000, 17.
10.37000, 9.
10.44000, 17.
10.51000, 11.
10.58000, 14.
10.65000, 13.
10.72000, 16.
10.79000, 11.
10.86000, 15.
10.93000, 13.
11.00000, 12.
11.07000, 15.
11.14000, 11.
11.21000, 11.
11.28000, 9.
11.35000, 13.
11.42000, 14.
11.49000, 10.
11.56000, 8.
11.63000, 5.
11.70000, 10.
11.77000, 14.
11.84000, 9.
11.91000, 12.
11.98000, 12.
12.05000, 8.
12.12000, 11.
12.19000, 10.
12.26000, 8.
12.33000, 8.
12.40000, 11.
12.47000, 8.
12.54000, 9.
12.61000, 9.
12.68000, 7.
12.75000, 8.
12.82000, 12.
12.89000, 8.
12.96000, 10.
13.03000, 7.
13.10000, 7.
13.17000, 6.
13.24000, 8.
13.31000, 6.
13.38000, 6.
13.45000, 7.
13.52000, 6.
13.59000, 4.
13.66000, 6.
13.73000, 5.
13.80000, 6.
13.87000, 8.
13.94000, 5.
14.01000, 7.
14.08000, 5.
14.15000, 6.
14.22000, 8.
14.29000, 3.
14.36000, 6.
14.43000, 3.
14.50000, 4.
14.57000, 6.
14.64000, 7.
14.71000, 4.
14.78000, 5.
14.85000, 10.
14.92000, 8.
14.99000, 5.
15.06000, 6.
15.13000, 3.
15.20000, 2.
15.27000, 2.
15.34000, 5.
15.41000, 6.
15.48000, 6.
15.55000, 6.
15.62000, 3.
15.69000, 5.
15.76000, 2.
15.83000, 5.
15.90000, 5.
15.97000, 3.
16.04000, 5.
16.11000, 4.
16.18000, 5.
16.25000, 3.
16.32000, 5.
16.39000, 5.
16.46000, 2.
16.53000, 5.
16.60000, 2.
16.67000, 0.
16.74000, 0.
16.81000, 3.
16.88000, 0.
16.95000, 1.
17.02000, 2.
17.09000, 0.
17.16000, 3.
17.23000, 1.
17.30000, 1.
17.37000, 1.
17.44000, 1.
17.51000, 2.
17.58000, 1.
17.65000, 0.
17.72000, 3.
17.79000, 0.
17.86000, 1.
17.93000, 1.
18.00000, 4.
18.07000, 1.
18.14000, 1.
18.21000, 0.
18.28000, 4.
18.35000, 1.
18.42000, 3.
18.49000, 0.
18.56000, 0.
18.63000, 2.
18.70000, 0.
18.77000, 1.
18.84000, 0.
18.91000, 1.
18.98000, 1.
19.05000, 0.
19.12000, 1.
19.19000, 1.
19.26000, 0.
19.33000, 1.
19.40000, 1.
19.47000, 0.
19.54000, 0.
19.61000, 0.
19.68000, 0.
19.75000, 0.
19.82000, 0.
19.89000, 0.
19.96000, 0.
20.03000, 0.
20.10000, 0.
20.17000, 0.
20.24000, 0.
20.27000, 0.
#ENDOFDATA   :