File: data/monolayers/nanoparticles/Ac_CoFe_C_2/edx/data/DD130_9_YF45_5.txt
#FORMAT      : EMSA/MAS Spectral Data File
#VERSION     : 1.0
#TITLE       : Spectrum 1
#DATE        : 04-DEC-2018
#TIME        : 11:10
#OWNER       :
#NPOINTS     : 2048.
#NCOLUMNS    : 1.
#XUNITS      : keV
#YUNITS      : counts
#DATATYPE    : XY
#XPERCHAN    : 0.0100000
#OFFSET      : -0.200000
#SIGNALTYPE  : EDS
#CHOFFSET    : 20.0000
#LIVETIME    : 100
#REALTIME    : 112.445
#BEAMKV      : 20.0000
#PROBECUR    : 0.000000
#MAGCAM      : 1390.00
#XTILTSTGE   : 0.0
#AZIMANGLE   : 0.0
#ELEVANGLE   : 35.0
#XPOSITION mm: 0.0000
#YPOSITION mm: 0.0000
#ZPOSITION mm: 0.0000
##OXINSTPT   : 5
##OXINSTSTROB: 49.04
##OXINSTELEMS: 5,6,8,11,14,26,27
##OXINSTLABEL: 26, 6.404, Fe
##OXINSTLABEL: 26, 7.058, Fe
##OXINSTLABEL: 26, 0.705, Fe
##OXINSTLABEL: 26, 0.628, Fe
##OXINSTLABEL: 8, 0.525, O
##OXINSTLABEL: 27, 6.930, Co
##OXINSTLABEL: 27, 7.650, Co
##OXINSTLABEL: 27, 0.776, Co
##OXINSTLABEL: 27, 0.694, Co
##OXINSTLABEL: 27, 0.678, Co
##OXINSTLABEL: 6, 0.277, C
##OXINSTLABEL: 11, 1.041, Na
##OXINSTLABEL: 14, 1.740, Si
##OXINSTLABEL: 5, 0.183, B
#SPECTRUM    : Spectral Data Starts Here
-0.20000, 0.
-0.13000, 0.
-0.06000, 38.
0.01000, 5374.
0.08000, 113.
0.15000, 115.
0.22000, 61.
0.29000, 178.
0.36000, 26.
0.43000, 90.
0.50000, 1526.
0.57000, 520.
0.64000, 250.
0.71000, 679.
0.78000, 300.
0.85000, 62.
0.92000, 26.
0.99000, 50.
1.06000, 72.
1.13000, 57.
1.20000, 45.
1.27000, 62.
1.34000, 58.
1.41000, 71.
1.48000, 67.
1.55000, 71.
1.62000, 79.
1.69000, 91.
1.76000, 117.
1.83000, 80.
1.90000, 78.
1.97000, 88.
2.04000, 93.
2.11000, 88.
2.18000, 86.
2.25000, 77.
2.32000, 82.
2.39000, 83.
2.46000, 86.
2.53000, 74.
2.60000, 86.
2.67000, 85.
2.74000, 82.
2.81000, 80.
2.88000, 69.
2.95000, 69.
3.02000, 85.
3.09000, 94.
3.16000, 85.
3.23000, 79.
3.30000, 69.
3.37000, 66.
3.44000, 74.
3.51000, 60.
3.58000, 69.
3.65000, 72.
3.72000, 51.
3.79000, 63.
3.86000, 59.
3.93000, 57.
4.00000, 55.
4.07000, 57.
4.14000, 59.
4.21000, 53.
4.28000, 51.
4.35000, 45.
4.42000, 46.
4.49000, 59.
4.56000, 48.
4.63000, 48.
4.70000, 46.
4.77000, 45.
4.84000, 45.
4.91000, 49.
4.98000, 52.
5.05000, 53.
5.12000, 49.
5.19000, 45.
5.26000, 40.
5.33000, 41.
5.40000, 36.
5.47000, 37.
5.54000, 32.
5.61000, 45.
5.68000, 34.
5.75000, 41.
5.82000, 44.
5.89000, 40.
5.96000, 32.
6.03000, 40.
6.10000, 33.
6.17000, 41.
6.24000, 82.
6.31000, 537.
6.38000, 1648.
6.45000, 1261.
6.52000, 206.
6.59000, 38.
6.66000, 38.
6.73000, 38.
6.80000, 93.
6.87000, 388.
6.94000, 581.
7.01000, 408.
7.08000, 212.
7.15000, 91.
7.22000, 19.
7.29000, 20.
7.36000, 21.
7.43000, 28.
7.50000, 29.
7.57000, 56.
7.64000, 90.
7.71000, 67.
7.78000, 31.
7.85000, 25.
7.92000, 18.
7.99000, 21.
8.06000, 27.
8.13000, 17.
8.20000, 9.
8.27000, 24.
8.34000, 19.
8.41000, 14.
8.48000, 17.
8.55000, 18.
8.62000, 24.
8.69000, 21.
8.76000, 22.
8.83000, 14.
8.90000, 12.
8.97000, 17.
9.04000, 14.
9.11000, 19.
9.18000, 12.
9.25000, 17.
9.32000, 12.
9.39000, 12.
9.46000, 19.
9.53000, 15.
9.60000, 15.
9.67000, 12.
9.74000, 13.
9.81000, 10.
9.88000, 10.
9.95000, 13.
10.02000, 15.
10.09000, 12.
10.16000, 10.
10.23000, 15.
10.30000, 12.
10.37000, 12.
10.44000, 13.
10.51000, 10.
10.58000, 11.
10.65000, 12.
10.72000, 15.
10.79000, 11.
10.86000, 11.
10.93000, 15.
11.00000, 10.
11.07000, 13.
11.14000, 10.
11.21000, 8.
11.28000, 15.
11.35000, 14.
11.42000, 12.
11.49000, 12.
11.56000, 12.
11.63000, 7.
11.70000, 6.
11.77000, 12.
11.84000, 11.
11.91000, 9.
11.98000, 10.
12.05000, 9.
12.12000, 7.
12.19000, 7.
12.26000, 9.
12.33000, 11.
12.40000, 7.
12.47000, 5.
12.54000, 7.
12.61000, 10.
12.68000, 7.
12.75000, 8.
12.82000, 4.
12.89000, 7.
12.96000, 9.
13.03000, 8.
13.10000, 10.
13.17000, 8.
13.24000, 4.
13.31000, 8.
13.38000, 7.
13.45000, 9.
13.52000, 3.
13.59000, 8.
13.66000, 5.
13.73000, 2.
13.80000, 7.
13.87000, 9.
13.94000, 8.
14.01000, 5.
14.08000, 7.
14.15000, 8.
14.22000, 8.
14.29000, 6.
14.36000, 6.
14.43000, 4.
14.50000, 5.
14.57000, 6.
14.64000, 5.
14.71000, 5.
14.78000, 4.
14.85000, 5.
14.92000, 2.
14.99000, 5.
15.06000, 4.
15.13000, 3.
15.20000, 8.
15.27000, 6.
15.34000, 4.
15.41000, 3.
15.48000, 8.
15.55000, 3.
15.62000, 6.
15.69000, 5.
15.76000, 3.
15.83000, 5.
15.90000, 7.
15.97000, 4.
16.04000, 4.
16.11000, 3.
16.18000, 7.
16.25000, 4.
16.32000, 3.
16.39000, 1.
16.46000, 4.
16.53000, 1.
16.60000, 3.
16.67000, 1.
16.74000, 3.
16.81000, 4.
16.88000, 1.
16.95000, 1.
17.02000, 0.
17.09000, 2.
17.16000, 3.
17.23000, 1.
17.30000, 1.
17.37000, 1.
17.44000, 4.
17.51000, 1.
17.58000, 2.
17.65000, 1.
17.72000, 1.
17.79000, 0.
17.86000, 2.
17.93000, 2.
18.00000, 0.
18.07000, 1.
18.14000, 1.
18.21000, 1.
18.28000, 0.
18.35000, 2.
18.42000, 2.
18.49000, 0.
18.56000, 0.
18.63000, 0.
18.70000, 0.
18.77000, 1.
18.84000, 1.
18.91000, 0.
18.98000, 1.
19.05000, 0.
19.12000, 1.
19.19000, 0.
19.26000, 0.
19.33000, 0.
19.40000, 0.
19.47000, 0.
19.54000, 0.
19.61000, 1.
19.68000, 0.
19.75000, 0.
19.82000, 0.
19.89000, 0.
19.96000, 0.
20.03000, 0.
20.10000, 0.
20.17000, 0.
20.24000, 0.
20.27000, 0.
#ENDOFDATA   :