File: data/monolayers/nanoparticles/Ac_CoFe_C_2/edx/data/DD130_9_YF45_2.txt
#FORMAT      : EMSA/MAS Spectral Data File
#VERSION     : 1.0
#TITLE       : Spectrum 1
#DATE        : 04-DEC-2018
#TIME        : 11:02
#OWNER       :
#NPOINTS     : 2048.
#NCOLUMNS    : 1.
#XUNITS      : keV
#YUNITS      : counts
#DATATYPE    : XY
#XPERCHAN    : 0.0100000
#OFFSET      : -0.200000
#SIGNALTYPE  : EDS
#CHOFFSET    : 20.0000
#LIVETIME    : 100
#REALTIME    : 112.944
#BEAMKV      : 20.0000
#PROBECUR    : 0.000000
#MAGCAM      : 1390.00
#XTILTSTGE   : 0.0
#AZIMANGLE   : 0.0
#ELEVANGLE   : 35.0
#XPOSITION mm: 0.0000
#YPOSITION mm: 0.0000
#ZPOSITION mm: 0.0000
##OXINSTPT   : 5
##OXINSTSTROB: 49.17
##OXINSTELEMS: 5,6,8,11,26,27
##OXINSTLABEL: 26, 6.404, Fe
##OXINSTLABEL: 26, 7.058, Fe
##OXINSTLABEL: 26, 0.705, Fe
##OXINSTLABEL: 26, 0.628, Fe
##OXINSTLABEL: 8, 0.525, O
##OXINSTLABEL: 11, 1.041, Na
##OXINSTLABEL: 27, 6.930, Co
##OXINSTLABEL: 27, 7.650, Co
##OXINSTLABEL: 27, 0.776, Co
##OXINSTLABEL: 27, 0.694, Co
##OXINSTLABEL: 27, 0.678, Co
##OXINSTLABEL: 6, 0.277, C
##OXINSTLABEL: 5, 0.183, B
#SPECTRUM    : Spectral Data Starts Here
-0.20000, 0.
-0.13000, 2.
-0.06000, 47.
0.01000, 5486.
0.08000, 149.
0.15000, 149.
0.22000, 80.
0.29000, 208.
0.36000, 58.
0.43000, 90.
0.50000, 1593.
0.57000, 536.
0.64000, 271.
0.71000, 722.
0.78000, 326.
0.85000, 64.
0.92000, 35.
0.99000, 60.
1.06000, 109.
1.13000, 42.
1.20000, 62.
1.27000, 68.
1.34000, 61.
1.41000, 70.
1.48000, 74.
1.55000, 77.
1.62000, 76.
1.69000, 85.
1.76000, 100.
1.83000, 87.
1.90000, 75.
1.97000, 79.
2.04000, 92.
2.11000, 91.
2.18000, 85.
2.25000, 100.
2.32000, 103.
2.39000, 88.
2.46000, 89.
2.53000, 76.
2.60000, 112.
2.67000, 95.
2.74000, 76.
2.81000, 84.
2.88000, 72.
2.95000, 78.
3.02000, 70.
3.09000, 82.
3.16000, 74.
3.23000, 65.
3.30000, 76.
3.37000, 60.
3.44000, 73.
3.51000, 67.
3.58000, 67.
3.65000, 70.
3.72000, 64.
3.79000, 67.
3.86000, 54.
3.93000, 64.
4.00000, 64.
4.07000, 48.
4.14000, 65.
4.21000, 52.
4.28000, 44.
4.35000, 51.
4.42000, 59.
4.49000, 53.
4.56000, 44.
4.63000, 50.
4.70000, 49.
4.77000, 51.
4.84000, 42.
4.91000, 46.
4.98000, 41.
5.05000, 39.
5.12000, 42.
5.19000, 36.
5.26000, 40.
5.33000, 41.
5.40000, 44.
5.47000, 37.
5.54000, 35.
5.61000, 32.
5.68000, 34.
5.75000, 29.
5.82000, 31.
5.89000, 43.
5.96000, 30.
6.03000, 40.
6.10000, 32.
6.17000, 40.
6.24000, 78.
6.31000, 581.
6.38000, 1625.
6.45000, 1193.
6.52000, 232.
6.59000, 36.
6.66000, 26.
6.73000, 32.
6.80000, 82.
6.87000, 394.
6.94000, 591.
7.01000, 385.
7.08000, 220.
7.15000, 77.
7.22000, 33.
7.29000, 19.
7.36000, 24.
7.43000, 27.
7.50000, 37.
7.57000, 61.
7.64000, 71.
7.71000, 65.
7.78000, 28.
7.85000, 21.
7.92000, 21.
7.99000, 17.
8.06000, 22.
8.13000, 13.
8.20000, 20.
8.27000, 23.
8.34000, 15.
8.41000, 19.
8.48000, 21.
8.55000, 15.
8.62000, 21.
8.69000, 18.
8.76000, 19.
8.83000, 10.
8.90000, 17.
8.97000, 20.
9.04000, 19.
9.11000, 17.
9.18000, 11.
9.25000, 15.
9.32000, 17.
9.39000, 11.
9.46000, 14.
9.53000, 20.
9.60000, 14.
9.67000, 13.
9.74000, 9.
9.81000, 18.
9.88000, 10.
9.95000, 14.
10.02000, 11.
10.09000, 19.
10.16000, 14.
10.23000, 9.
10.30000, 12.
10.37000, 15.
10.44000, 12.
10.51000, 13.
10.58000, 12.
10.65000, 10.
10.72000, 13.
10.79000, 11.
10.86000, 6.
10.93000, 9.
11.00000, 9.
11.07000, 12.
11.14000, 8.
11.21000, 12.
11.28000, 10.
11.35000, 6.
11.42000, 10.
11.49000, 13.
11.56000, 10.
11.63000, 9.
11.70000, 8.
11.77000, 13.
11.84000, 12.
11.91000, 6.
11.98000, 8.
12.05000, 7.
12.12000, 8.
12.19000, 8.
12.26000, 8.
12.33000, 8.
12.40000, 7.
12.47000, 8.
12.54000, 10.
12.61000, 6.
12.68000, 6.
12.75000, 7.
12.82000, 10.
12.89000, 12.
12.96000, 6.
13.03000, 11.
13.10000, 12.
13.17000, 8.
13.24000, 8.
13.31000, 9.
13.38000, 7.
13.45000, 7.
13.52000, 5.
13.59000, 8.
13.66000, 6.
13.73000, 6.
13.80000, 6.
13.87000, 3.
13.94000, 4.
14.01000, 7.
14.08000, 5.
14.15000, 5.
14.22000, 6.
14.29000, 3.
14.36000, 3.
14.43000, 4.
14.50000, 6.
14.57000, 3.
14.64000, 7.
14.71000, 4.
14.78000, 3.
14.85000, 5.
14.92000, 2.
14.99000, 5.
15.06000, 7.
15.13000, 5.
15.20000, 6.
15.27000, 2.
15.34000, 2.
15.41000, 3.
15.48000, 5.
15.55000, 4.
15.62000, 3.
15.69000, 4.
15.76000, 4.
15.83000, 7.
15.90000, 2.
15.97000, 5.
16.04000, 7.
16.11000, 6.
16.18000, 2.
16.25000, 7.
16.32000, 3.
16.39000, 2.
16.46000, 3.
16.53000, 7.
16.60000, 2.
16.67000, 4.
16.74000, 2.
16.81000, 3.
16.88000, 6.
16.95000, 3.
17.02000, 2.
17.09000, 3.
17.16000, 3.
17.23000, 3.
17.30000, 1.
17.37000, 2.
17.44000, 5.
17.51000, 4.
17.58000, 2.
17.65000, 1.
17.72000, 1.
17.79000, 1.
17.86000, 1.
17.93000, 3.
18.00000, 2.
18.07000, 0.
18.14000, 2.
18.21000, 1.
18.28000, 2.
18.35000, 0.
18.42000, 2.
18.49000, 0.
18.56000, 1.
18.63000, 0.
18.70000, 1.
18.77000, 2.
18.84000, 1.
18.91000, 2.
18.98000, 0.
19.05000, 1.
19.12000, 1.
19.19000, 2.
19.26000, 0.
19.33000, 0.
19.40000, 1.
19.47000, 0.
19.54000, 1.
19.61000, 0.
19.68000, 0.
19.75000, 0.
19.82000, 0.
19.89000, 0.
19.96000, 0.
20.03000, 0.
20.10000, 0.
20.17000, 0.
20.24000, 0.
20.27000, 0.
#ENDOFDATA   :