File: data/monolayers/nanoparticles/Ac_CoFe_C_2/edx/data/DD130_9_YF45_4.txt
#FORMAT      : EMSA/MAS Spectral Data File
#VERSION     : 1.0
#TITLE       : Spectrum 1
#DATE        : 04-DEC-2018
#TIME        : 11:08
#OWNER       :
#NPOINTS     : 2048.
#NCOLUMNS    : 1.
#XUNITS      : keV
#YUNITS      : counts
#DATATYPE    : XY
#XPERCHAN    : 0.0100000
#OFFSET      : -0.200000
#SIGNALTYPE  : EDS
#CHOFFSET    : 20.0000
#LIVETIME    : 100
#REALTIME    : 112.364
#BEAMKV      : 20.0000
#PROBECUR    : 0.000000
#MAGCAM      : 1390.00
#XTILTSTGE   : 0.0
#AZIMANGLE   : 0.0
#ELEVANGLE   : 35.0
#XPOSITION mm: 0.0000
#YPOSITION mm: 0.0000
#ZPOSITION mm: 0.0000
##OXINSTPT   : 5
##OXINSTSTROB: 49.05
##OXINSTELEMS: 6,8,11,14,26,27
##OXINSTLABEL: 26, 6.404, Fe
##OXINSTLABEL: 26, 7.058, Fe
##OXINSTLABEL: 26, 0.705, Fe
##OXINSTLABEL: 26, 0.628, Fe
##OXINSTLABEL: 14, 1.740, Si
##OXINSTLABEL: 8, 0.525, O
##OXINSTLABEL: 27, 6.930, Co
##OXINSTLABEL: 27, 7.650, Co
##OXINSTLABEL: 27, 0.776, Co
##OXINSTLABEL: 27, 0.694, Co
##OXINSTLABEL: 27, 0.678, Co
##OXINSTLABEL: 6, 0.277, C
##OXINSTLABEL: 11, 1.041, Na
#SPECTRUM    : Spectral Data Starts Here
-0.20000, 0.
-0.13000, 0.
-0.06000, 31.
0.01000, 5485.
0.08000, 115.
0.15000, 48.
0.22000, 69.
0.29000, 182.
0.36000, 35.
0.43000, 80.
0.50000, 1445.
0.57000, 522.
0.64000, 240.
0.71000, 698.
0.78000, 273.
0.85000, 47.
0.92000, 20.
0.99000, 48.
1.06000, 60.
1.13000, 46.
1.20000, 39.
1.27000, 59.
1.34000, 63.
1.41000, 62.
1.48000, 70.
1.55000, 68.
1.62000, 72.
1.69000, 120.
1.76000, 179.
1.83000, 98.
1.90000, 78.
1.97000, 89.
2.04000, 85.
2.11000, 90.
2.18000, 76.
2.25000, 84.
2.32000, 89.
2.39000, 86.
2.46000, 78.
2.53000, 95.
2.60000, 96.
2.67000, 97.
2.74000, 85.
2.81000, 94.
2.88000, 75.
2.95000, 78.
3.02000, 76.
3.09000, 71.
3.16000, 74.
3.23000, 68.
3.30000, 73.
3.37000, 69.
3.44000, 76.
3.51000, 72.
3.58000, 66.
3.65000, 69.
3.72000, 73.
3.79000, 67.
3.86000, 55.
3.93000, 62.
4.00000, 53.
4.07000, 51.
4.14000, 61.
4.21000, 65.
4.28000, 45.
4.35000, 56.
4.42000, 50.
4.49000, 47.
4.56000, 53.
4.63000, 54.
4.70000, 55.
4.77000, 37.
4.84000, 51.
4.91000, 34.
4.98000, 38.
5.05000, 46.
5.12000, 38.
5.19000, 47.
5.26000, 45.
5.33000, 45.
5.40000, 43.
5.47000, 44.
5.54000, 32.
5.61000, 42.
5.68000, 36.
5.75000, 51.
5.82000, 36.
5.89000, 42.
5.96000, 40.
6.03000, 43.
6.10000, 35.
6.17000, 48.
6.24000, 83.
6.31000, 512.
6.38000, 1616.
6.45000, 1181.
6.52000, 238.
6.59000, 43.
6.66000, 34.
6.73000, 41.
6.80000, 84.
6.87000, 365.
6.94000, 595.
7.01000, 407.
7.08000, 229.
7.15000, 99.
7.22000, 20.
7.29000, 17.
7.36000, 15.
7.43000, 20.
7.50000, 28.
7.57000, 45.
7.64000, 86.
7.71000, 48.
7.78000, 29.
7.85000, 27.
7.92000, 25.
7.99000, 24.
8.06000, 12.
8.13000, 14.
8.20000, 14.
8.27000, 18.
8.34000, 27.
8.41000, 19.
8.48000, 13.
8.55000, 19.
8.62000, 20.
8.69000, 16.
8.76000, 19.
8.83000, 18.
8.90000, 17.
8.97000, 13.
9.04000, 14.
9.11000, 19.
9.18000, 15.
9.25000, 9.
9.32000, 12.
9.39000, 21.
9.46000, 15.
9.53000, 11.
9.60000, 14.
9.67000, 19.
9.74000, 16.
9.81000, 13.
9.88000, 11.
9.95000, 16.
10.02000, 11.
10.09000, 14.
10.16000, 12.
10.23000, 15.
10.30000, 16.
10.37000, 8.
10.44000, 14.
10.51000, 10.
10.58000, 5.
10.65000, 15.
10.72000, 8.
10.79000, 8.
10.86000, 13.
10.93000, 14.
11.00000, 7.
11.07000, 11.
11.14000, 8.
11.21000, 11.
11.28000, 15.
11.35000, 12.
11.42000, 13.
11.49000, 10.
11.56000, 12.
11.63000, 7.
11.70000, 10.
11.77000, 9.
11.84000, 13.
11.91000, 10.
11.98000, 6.
12.05000, 10.
12.12000, 7.
12.19000, 10.
12.26000, 6.
12.33000, 10.
12.40000, 7.
12.47000, 12.
12.54000, 10.
12.61000, 8.
12.68000, 6.
12.75000, 9.
12.82000, 7.
12.89000, 8.
12.96000, 8.
13.03000, 9.
13.10000, 9.
13.17000, 7.
13.24000, 10.
13.31000, 5.
13.38000, 11.
13.45000, 7.
13.52000, 7.
13.59000, 10.
13.66000, 7.
13.73000, 5.
13.80000, 6.
13.87000, 6.
13.94000, 6.
14.01000, 5.
14.08000, 7.
14.15000, 7.
14.22000, 7.
14.29000, 6.
14.36000, 5.
14.43000, 6.
14.50000, 5.
14.57000, 7.
14.64000, 5.
14.71000, 5.
14.78000, 3.
14.85000, 6.
14.92000, 4.
14.99000, 6.
15.06000, 7.
15.13000, 3.
15.20000, 5.
15.27000, 8.
15.34000, 0.
15.41000, 6.
15.48000, 4.
15.55000, 3.
15.62000, 3.
15.69000, 7.
15.76000, 4.
15.83000, 1.
15.90000, 4.
15.97000, 3.
16.04000, 7.
16.11000, 3.
16.18000, 6.
16.25000, 1.
16.32000, 2.
16.39000, 2.
16.46000, 2.
16.53000, 1.
16.60000, 1.
16.67000, 3.
16.74000, 2.
16.81000, 0.
16.88000, 4.
16.95000, 0.
17.02000, 3.
17.09000, 2.
17.16000, 3.
17.23000, 0.
17.30000, 5.
17.37000, 3.
17.44000, 2.
17.51000, 1.
17.58000, 2.
17.65000, 3.
17.72000, 0.
17.79000, 1.
17.86000, 2.
17.93000, 1.
18.00000, 2.
18.07000, 0.
18.14000, 1.
18.21000, 1.
18.28000, 0.
18.35000, 1.
18.42000, 0.
18.49000, 1.
18.56000, 2.
18.63000, 1.
18.70000, 2.
18.77000, 0.
18.84000, 1.
18.91000, 1.
18.98000, 0.
19.05000, 2.
19.12000, 0.
19.19000, 0.
19.26000, 1.
19.33000, 0.
19.40000, 0.
19.47000, 0.
19.54000, 0.
19.61000, 0.
19.68000, 0.
19.75000, 0.
19.82000, 0.
19.89000, 0.
19.96000, 0.
20.03000, 0.
20.10000, 0.
20.17000, 0.
20.24000, 0.
20.27000, 0.
#ENDOFDATA   :