File: data/monolayers/nanoparticles/Ac_CoFe_C/vsm/AH11_10K_LangevinSAXSscaled.xye
#Executed at: 2018-11-09 13:19:57.8772
#Loaded File	 = ./AH11_HYST_100OE_10K.DAT
#Rescale Factor	 = 0.144977
#[[Data]]
#B/T	M/kAm-1	sM/kAm-1	M_raw/memu	sM_raw/memu
1.97909e-05	136.869	5.82531e-05	944.071	0.000401808
0.196725	159.094	4.80002e-05	1097.37	0.000331087
0.402891	182.28	6.12805e-05	1257.3	0.00042269
0.610368	206.377	5.9046e-05	1423.51	0.000407277
0.815957	230.658	6.35922e-05	1590.99	0.000438635
1.02044	256.214	8.24596e-05	1767.27	0.000568776
1.22453	283.745	8.97869e-05	1957.17	0.000619317
1.42872	314.51	9.21965e-05	2169.37	0.000635937
1.62757	348.552	0.000115424	2404.18	0.00079615
1.8345	388.123	0.000108723	2677.13	0.000749933
2.03737	432.572	0.000104916	2983.72	0.000723674
2.23653	478.841	9.59277e-05	3302.87	0.000661674
2.44317	527.209	0.000143111	3636.49	0.000987129
2.64628	573.001	0.000141684	3952.35	0.000977283
2.85149	613.896	0.00015304	4234.43	0.00105561
3.0566	649.174	0.00015229	4477.76	0.00105044
3.26253	679.039	0.000154337	4683.76	0.00106456
3.47339	705.004	0.000185242	4862.85	0.00127773
3.67728	726.782	0.000146658	5013.07	0.00101159
3.89043	745.805	0.000173932	5144.28	0.00119972
4.09159	762.118	0.0001562	5256.81	0.00107741
4.29997	776.814	0.000228679	5358.18	0.00157734
4.50963	789.488	0.000258263	5445.6	0.0017814
4.71077	800.573	0.000231872	5522.06	0.00159936
4.91593	810.798	0.000210549	5592.58	0.00145229
5.12231	820.03	0.000242878	5656.27	0.00167529
5.3447	829.082	0.000227254	5718.7	0.00156751
5.58032	838.183	0.000238818	5781.48	0.00164727
5.80873	845.499	0.000275395	5831.94	0.00189957
6.03582	852.087	0.000308999	5877.38	0.00213136
6.26077	857.416	0.000235495	5914.14	0.00162436
6.48265	862.672	0.00024977	5950.39	0.00172282
6.71205	867.535	0.000235603	5983.93	0.0016251
6.93995	872.467	0.00024265	6017.96	0.00167371
7.16406	876.043	0.00031698	6042.62	0.00218641
7.40264	879.546	0.000276514	6066.78	0.00190729
7.63066	882.087	0.000319119	6084.31	0.00220117
7.85981	884.424	0.000336755	6100.43	0.00232281
8.09596	887.034	0.00031362	6118.43	0.00216323
8.31489	888.748	0.000270818	6130.25	0.001868
8.54428	889.356	0.000323779	6134.45	0.00223331
8.75919	890.884	0.000335345	6144.98	0.00231309
8.97961	892.031	0.000335871	6152.9	0.00231671
8.80008	891.825	0.000344558	6151.48	0.00237663
8.58865	891.856	0.000332524	6151.7	0.00229363
8.37569	890.547	0.000268455	6142.66	0.0018517
8.14527	890.24	0.000336126	6140.54	0.00231847
7.91555	887.741	0.000332098	6123.31	0.00229069
7.67918	885.551	0.000310381	6108.2	0.00214089
7.45795	883.639	0.00030271	6095.01	0.00208798
7.21935	881.489	0.000259564	6080.18	0.00179038
6.99089	878.038	0.000293886	6056.38	0.00202711
6.762	874.941	0.000278038	6035.02	0.0019178
6.53687	871.207	0.00034016	6009.27	0.0023463
6.31049	866.932	0.000248834	5979.77	0.00171636
6.08276	860.968	0.000231371	5938.64	0.00159591
5.85012	855.889	0.000268326	5903.61	0.00185081
5.62369	850.099	0.000299065	5863.67	0.00206284
5.39136	843.888	0.000275043	5820.82	0.00189714
5.16421	836.587	0.000276732	5770.47	0.00190879
4.93356	828.255	0.000258805	5713	0.00178514
4.6927	819.193	0.000223198	5650.49	0.00153954
4.46859	809.949	0.000240938	5586.73	0.0016619
4.24316	799.94	0.000236259	5517.69	0.00162963
4.00751	789.179	0.000181792	5443.47	0.00125393
3.78564	777.838	0.000244159	5365.24	0.00168412
3.56551	766.132	0.00022062	5284.5	0.00152175
3.33616	752.742	0.000184315	5192.13	0.00127134
3.10926	738.302	0.000215541	5092.53	0.00148672
2.87941	723.29	0.000163104	4988.98	0.00112503
2.65873	707.64	0.000185958	4881.04	0.00128267
2.42636	690.807	0.000148384	4764.93	0.0010235
2.20249	673.467	0.000158737	4645.33	0.00109491
1.97538	655.257	0.000144462	4519.72	0.000996447
1.74399	635.069	0.00015981	4380.47	0.00110231
1.51838	614.97	0.000130663	4241.84	0.000901263
1.29425	594.048	0.000126362	4097.52	0.000871597
1.06586	571.719	0.000104379	3943.51	0.000719968
0.835469	548.523	9.44943e-05	3783.51	0.000651786
0.6051	524.331	9.14599e-05	3616.64	0.000630857
0.377667	499.473	8.44796e-05	3445.18	0.000582709
0.15025	472.713	9.07618e-05	3260.6	0.000626041
-0.0810735	444.328	7.36686e-05	3064.81	0.000508138
-0.309781	414.099	7.92383e-05	2856.3	0.000546556
-0.540849	381.794	8.45749e-05	2633.47	0.000583367
-0.766738	346.881	7.5108e-05	2392.66	0.000518067
-0.987985	306.451	8.18451e-05	2113.79	0.000564537
-1.2228	255.284	9.30783e-05	1760.86	0.000642019
-1.44996	193.331	0.000527594	1333.52	0.00363915
-1.66006	119.195	0.000164966	822.165	0.00113788
-1.88922	18.9972	0.000127709	131.036	0.000880889
-2.11883	-99.2656	0.000187665	-684.697	0.00129444
-2.3442	-223.325	0.000208268	-1540.41	0.00143656
-2.56455	-343.75	0.000224349	-2371.06	0.00154747
-2.79571	-453.345	0.000199519	-3127.01	0.0013762
-3.02006	-541.947	0.000223602	-3738.15	0.00154232
-3.25097	-611.572	0.000202425	-4218.4	0.00139625
-3.4745	-666.266	0.000238785	-4595.65	0.00164705
-3.70912	-708.159	0.00018424	-4884.62	0.00127082
-3.93553	-740.367	0.000211792	-5106.77	0.00146086
-4.16314	-766.469	0.000216056	-5286.82	0.00149027
-4.39273	-787.134	0.000249882	-5429.36	0.00172359
-4.60441	-802.622	0.000215664	-5536.19	0.00148757
-4.82828	-816.692	0.000252023	-5633.24	0.00173836
-5.06614	-829.124	0.00023647	-5718.99	0.00163108
-5.2867	-839.105	0.000269145	-5787.84	0.00185646
-5.51412	-848.653	0.000297945	-5853.7	0.00205512
-5.74445	-855.813	0.000267824	-5903.08	0.00184735
-5.97684	-862.418	0.000246518	-5948.64	0.00170039
-6.21144	-869.381	0.000372227	-5996.67	0.00256748
-6.4333	-873.585	0.000256843	-6025.67	0.00177161
-6.65791	-879.093	0.000298958	-6063.66	0.0020621
-6.89181	-883.82	0.000377883	-6096.27	0.0026065
-7.11591	-887.207	0.000423255	-6119.63	0.00291945
-7.34476	-890.544	0.00035393	-6142.64	0.00244128
-7.57384	-893.54	0.000351228	-6163.31	0.00242264
-7.80073	-896.45	0.000419894	-6183.38	0.00289627
-8.03062	-898.358	0.000391796	-6196.54	0.00270246
-8.25647	-900.899	0.000334597	-6214.07	0.00230793
-8.4871	-901.761	0.000347765	-6220.01	0.00239876
-8.69742	-901.943	0.000345284	-6221.27	0.00238164
-8.91901	-903.102	0.000277787	-6229.26	0.00191607
-8.86955	-903.261	0.000384878	-6230.36	0.00265474
-8.66272	-902.905	0.000392034	-6227.9	0.0027041
-8.44635	-901.454	0.000409615	-6217.9	0.00282537
-8.22226	-900.857	0.000331554	-6213.78	0.00228694
-7.99234	-899.024	0.000407394	-6201.14	0.00281005
-7.76501	-896.935	0.000355768	-6186.73	0.00245395
-7.53912	-895.477	0.000362619	-6176.67	0.00250121
-7.312	-892.614	0.000373329	-6156.92	0.00257508
-7.08541	-889.919	0.000340221	-6138.33	0.00234672
-6.85859	-886.291	0.000389033	-6113.31	0.0026834
-6.63219	-882.477	0.000334468	-6087	0.00230703
-6.40663	-877.871	0.000323865	-6055.23	0.0022339
-6.17794	-873.525	0.000315904	-6025.25	0.00217899
-5.94486	-868.557	0.000345405	-5990.98	0.00238248
-5.70821	-862.485	0.000320027	-5949.1	0.00220743
-5.48235	-855.274	0.000267053	-5899.36	0.00184203
-5.24876	-848.341	0.000236044	-5851.54	0.00162814
-5.01695	-840.391	0.000274633	-5796.7	0.00189432
-4.78678	-832.192	0.000258568	-5740.15	0.00178351
-4.55548	-822.313	0.000297446	-5672.01	0.00205167
-4.32055	-812.825	0.000220904	-5606.57	0.00152372
-4.0927	-801.737	0.000324575	-5530.08	0.0022388
-3.86033	-790.163	0.000276471	-5450.25	0.001907
-3.62919	-777.487	0.000216998	-5362.82	0.00149678
-3.40511	-764.909	0.000266085	-5276.06	0.00183536
-3.17403	-751.065	0.000220288	-5180.57	0.00151947
-2.93789	-735.633	0.000177509	-5074.12	0.00122439
-2.70331	-719.619	0.000252708	-4963.66	0.00174309
-2.47015	-703.033	0.000215507	-4849.26	0.00148649
-2.26303	-687.093	0.000156448	-4739.31	0.00107912
-2.05539	-670.146	0.000150507	-4622.42	0.00103814
-1.85027	-653.118	0.000119074	-4504.97	0.000821331
-1.64265	-634.742	0.000145648	-4378.22	0.00100463
-1.43678	-615.915	0.00013033	-4248.35	0.000898968
-1.23058	-596.625	0.000120976	-4115.3	0.000834448
-1.02698	-576.402	0.000101999	-3975.8	0.000703548
-0.813248	-554.545	0.000106805	-3825.04	0.000736703
-0.602639	-532.153	8.84082e-05	-3670.59	0.000609807
-0.39645	-509.551	7.63714e-05	-3514.69	0.000526781
-0.188997	-485.098	7.32072e-05	-3346.02	0.000504956
0.0174766	-460.056	7.38898e-05	-3173.3	0.000509664
0.219893	-432.937	7.1794e-05	-2986.24	0.000495208
0.430571	-403.855	6.76942e-05	-2785.64	0.000466929
0.631291	-373.817	7.45871e-05	-2578.45	0.000514474
0.836433	-339.166	8.06454e-05	-2339.44	0.000556262
1.0424	-298.92	8.44089e-05	-2061.84	0.000582222
1.25276	-249.376	0.000112611	-1720.1	0.000776746
1.46247	-187.322	0.000107236	-1292.08	0.000739674
1.66907	-109.908	0.000125485	-758.106	0.000865549
1.87021	-20.8938	0.000160284	-144.118	0.00110558
2.08414	89.7728	0.00017869	619.219	0.00123253
2.29026	202.755	0.000190262	1398.53	0.00131235
2.49513	314.174	0.000252859	2167.06	0.00174412
2.70359	419.038	0.000222811	2890.37	0.00153687
2.90373	504.136	0.000193214	3477.35	0.00133272
3.10534	574.758	0.000238357	3964.47	0.0016441
3.30848	632.133	0.00021719	4360.22	0.0014981
3.51015	676.454	0.000279729	4665.93	0.00192947
3.71053	711.842	0.00024888	4910.02	0.00171669
3.91489	740.538	0.000263396	5107.96	0.00181681
4.11635	763.926	0.000213733	5269.28	0.00147425
4.32121	782.941	0.000270239	5400.44	0.00186401
4.52588	798.887	0.000259623	5510.42	0.00179078
4.729275	812.286	0.000307358	5602.84	0.00212004
4.93545	824.323	0.000276293	5685.88	0.00190576
5.13907	834.108	0.000312985	5753.37	0.00215885
5.34296	842.797	0.000360907	5813.3	0.0024894
5.54486	850.463	0.000325791	5866.18	0.00224719
5.75022	857.21	0.000322055	5912.72	0.00222141
5.95291	863.827	0.000289781	5958.36	0.0019988
6.15979	868.911	0.000321332	5993.42	0.00221643
6.36526	874.457	0.000325073	6031.68	0.00224223
6.56914	878.832	0.000334167	6061.85	0.00230496
6.77605	882.639	0.000307126	6088.12	0.00211844
6.98419	886.15	0.000333781	6112.34	0.0023023
7.18661	890.023	0.000402511	6139.05	0.00277637
7.3875	892.538	0.000410517	6156.4	0.00283159
7.59946	894.977	0.000320036	6173.22	0.00220749
7.81385	897.156	0.000396162	6188.25	0.00273258
8.017	898.86	0.000353463	6200.01	0.00243806
8.22947	899.72	0.000441305	6205.93	0.00304396
8.43456	901.387	0.000442762	6217.44	0.00305401
8.6318	902.583	0.000457072	6225.68	0.00315271
8.82966	902.642	0.000465607	6226.09	0.00321158
8.99996	903.368	0.00036607	6231.1	0.00252502