File: data/monolayers/nanoparticles/Ac_CoFe_C/vsm/AH11_LangevinSAXSscaled.xye
#Executed at: 2018-11-09 13:18:15.978
#Loaded File	 = ./AH11_HYST_100OE_300K.DAT
#particle info	 = Superball Model, r = 46.9421 A, p = 2.65743
#fit report	 = [[Fit Statistics]]
#    # fitting method   = leastsq
#    # function evals   = 59
#    # data points      = 882
#    # variables        = 3
#    chi-square         = 4.3142e+09
#    reduced chi-square = 4908101.09
#    Akaike info crit   = 13591.4
#    Bayesian info crit = 13605.8
#[[Variables]]
#    Ms:   1983.21 +/- 8.45653 (0.43%) (init = 1)
#    mu:   22549.1 +/- 256.886 (1.14%) (init = 10000)
#    chi:  20.7399 +/- 12.4459 (60.01%) (init = 0)
#    T:    300 (fixed)
#[[Correlations]] (unreported correlations are < 0.100)
#    C(Ms, chi) = -0.922
#    C(Ms, mu)  = -0.737
#    C(mu, chi) =  0.621
#Ms Should	 = 287.521 kA/m
#Rescale Factor	 = 0.144977
#[[Data]]
#B/T	M/kAm-1	sM/kAm-1	M_raw/memu	sM_raw/memu
0.0124541	108.764	0.00330894	750.215	0.0228239
0.0222853	101.14	0.00236766	697.626	0.0163313
0.0474835	173.115	0.00270346	1194.09	0.0186475
0.0744314	209.56	0.00432121	1445.47	0.0298061
0.102625	231.24	0.00411256	1595.01	0.0283669
0.129522	242.052	0.00528479	1669.59	0.0364525
0.157943	248.729	0.00449208	1715.64	0.0309847
0.186362	260.746	0.0047726	1798.53	0.0329197
0.214506	262.283	0.00426954	1809.13	0.0294497
0.241202	266.817	0.00514672	1840.4	0.0355002
0.270377	268.024	0.0043373	1848.73	0.0299171
0.298286	269.582	0.00469778	1859.48	0.0324035
0.324956	269.215	0.00516694	1856.95	0.0356397
0.352629	270.902	0.00537529	1868.58	0.0370768
0.377547	271.074	0.0049029	1869.77	0.0338184
0.406724	273.419	0.00506721	1885.94	0.0349517
0.433944	276.167	0.00568784	1904.89	0.0392326
0.463388	281.942	0.00584859	1944.73	0.0403414
0.49058	281.444	0.00585215	1941.3	0.040366
0.518734	284.326	0.00514261	1961.17	0.0354718
0.546961	283.035	0.004958	1952.27	0.0341984
0.575911	278.734	0.00690855	1922.6	0.0476526
0.603132	282.435	0.00653519	1948.13	0.0450773
0.633388	283.475	0.00426995	1955.3	0.0294525
0.664102	285.585	0.0053377	1969.86	0.0368175
0.693074	285.661	0.00601846	1970.38	0.0415131
0.722322	284.988	0.00605516	1965.74	0.0417663
0.750798	283.793	0.00505802	1957.5	0.0348884
0.780737	280.45	0.00582169	1934.44	0.0401559
0.809706	284.787	0.00700424	1964.35	0.0483127
0.836976	277.894	0.00613184	1916.81	0.0422951
0.867487	283.49	0.00598802	1955.41	0.0413032
0.895507	289.082	0.0060643	1993.98	0.0418293
0.923256	282.639	0.00528631	1949.54	0.036463
0.955479	288.828	0.0058524	1992.23	0.0403677
0.980743	285.402	0.00521759	1968.6	0.035989
0.991989	284.721	0.00544576	1963.9	0.0375628
0.966006	282.713	0.00475028	1950.05	0.0327657
0.935055	287.029	0.00479235	1979.82	0.0330559
0.908044	288.158	0.00530183	1987.61	0.03657
0.879717	281.778	0.00546755	1943.6	0.0377132
0.850744	282.1	0.00588816	1945.82	0.0406144
0.821013	286.435	0.00415548	1975.72	0.0286629
0.787014	282.149	0.0042913	1946.16	0.0295998
0.760559	285.098	0.00523058	1966.5	0.0360786
0.730829	285.523	0.00710211	1969.43	0.0489877
0.701879	282.156	0.00412924	1946.21	0.028482
0.675354	279.839	0.00579663	1930.22	0.039983
0.644421	281.971	0.00533408	1944.93	0.0367925
0.615166	282.18	0.00511735	1946.37	0.0352976
0.588153	280.093	0.00425876	1931.98	0.0293753
0.560177	279.596	0.00517544	1928.55	0.0356983
0.531988	280.627	0.0061614	1935.66	0.042499
0.503975	275.821	0.00453565	1902.51	0.0312852
0.475492	277.99	0.00484734	1917.47	0.0334351
0.449234	274.599	0.00573381	1894.08	0.0395497
0.41821	273.468	0.00534004	1886.28	0.0368336
0.389744	275.666	0.00508323	1901.44	0.0350622
0.361984	269.364	0.00494279	1857.97	0.0340935
0.33528	274.975	0.00541637	1896.68	0.0373601
0.307244	267.281	0.00483272	1843.6	0.0333343
0.277749	267.138	0.00572814	1842.62	0.0395106
0.248268	263.854	0.00516315	1819.97	0.0356135
0.215555	264.353	0.00565545	1823.41	0.0390092
0.190561	257.709	0.00506214	1777.58	0.0349168
0.162053	250.474	0.00426075	1727.68	0.0293891
0.136014	247.129	0.00490855	1704.6	0.0338573
0.106807	234.377	0.00337584	1616.65	0.0232853
0.079089	214.433	0.00357835	1479.08	0.0246821
0.0515857	182.505	0.00279869	1258.85	0.0193043
0.0243372	105.672	0.0022254	728.885	0.01535
-0.00412121	-19.1658	0.00133836	-132.199	0.00923154
-0.032134	-144.24	0.00243145	-994.914	0.0167713
-0.0618226	-195.5	0.00383274	-1348.49	0.0264368
-0.0892453	-225.828	0.00376089	-1557.68	0.0259413
-0.118633	-240.124	0.00382644	-1656.29	0.0263933
-0.146828	-252.581	0.00413995	-1742.21	0.0285558
-0.174256	-254.863	0.0044463	-1757.95	0.0306689
-0.202892	-259.159	0.00528175	-1787.58	0.0364315
-0.230056	-261.91	0.0039152	-1806.56	0.0270056
-0.257485	-270.217	0.00480699	-1863.86	0.0331568
-0.288181	-267.232	0.00488517	-1843.27	0.0336961
-0.314214	-273.27	0.00473572	-1884.92	0.0326653
-0.343437	-273.414	0.00425811	-1885.91	0.0293708
-0.372247	-274.102	0.00385508	-1890.65	0.0265909
-0.403513	-275.722	0.00504877	-1901.83	0.0348246
-0.42827	-273.814	0.00560821	-1888.67	0.0386833
-0.457806	-274.808	0.00397852	-1895.52	0.0274424
-0.48431	-276.657	0.00535645	-1908.28	0.0369468
-0.518045	-278.338	0.00517395	-1919.87	0.035688
-0.545013	-282.305	0.00551065	-1947.23	0.0380104
-0.572506	-278.923	0.00461934	-1923.91	0.0318625
-0.59901	-278.421	0.00487074	-1920.44	0.0335966
-0.627963	-281.606	0.00528582	-1942.41	0.0364596
-0.656523	-283.822	0.00515318	-1957.7	0.0355448
-0.685734	-281.362	0.0059191	-1940.73	0.0408277
-0.71473	-281.964	0.00525345	-1944.89	0.0362364
-0.745181	-286.828	0.00640677	-1978.44	0.0441915
-0.771951	-282.013	0.00621919	-1945.22	0.0428977
-0.800662	-280.49	0.00566557	-1934.71	0.039079
-0.831665	-282.856	0.00520409	-1951.04	0.0358959
-0.859627	-286.964	0.00589352	-1979.37	0.0406513
-0.889659	-285.216	0.00553106	-1967.31	0.0381512
-0.918923	-281.541	0.00425945	-1941.97	0.0293801
-0.949884	-282.738	0.00602828	-1950.23	0.0415808
-0.978661	-284.096	0.00520195	-1959.59	0.0358811
-0.990193	-282.863	0.00510071	-1951.08	0.0351828
-0.963216	-286.363	0.00478353	-1975.22	0.032995
-0.934994	-284.242	0.00596377	-1960.59	0.0411359
-0.907244	-278.156	0.00513612	-1918.62	0.0354271
-0.877916	-278.661	0.0055609	-1922.1	0.038357
-0.849951	-278.753	0.00459283	-1922.73	0.0316797
-0.821719	-284.322	0.00497848	-1961.15	0.0343397
-0.793443	-281.224	0.00675415	-1939.78	0.0465876
-0.763507	-278.017	0.00419288	-1917.66	0.0289209
-0.736521	-281.711	0.00456904	-1943.14	0.0315155
-0.707275	-280.75	0.00511692	-1936.51	0.0352946
-0.67776	-280.183	0.00445087	-1932.6	0.0307004
-0.646792	-280.659	0.00583475	-1935.88	0.040246
-0.616336	-281.574	0.00636668	-1942.19	0.043915
-0.591297	-277.862	0.00503982	-1916.59	0.0347628
-0.561586	-276.879	0.00538774	-1909.81	0.0371627
-0.533595	-275.882	0.00482941	-1902.93	0.0333115
-0.507119	-280.042	0.00533166	-1931.63	0.0367758
-0.473132	-273.999	0.00603655	-1889.94	0.0416379
-0.447407	-274.147	0.00580188	-1890.96	0.0400192
-0.421115	-275.283	0.00560989	-1898.8	0.038695
-0.389654	-274.205	0.00496885	-1891.36	0.0342733
-0.361368	-271.011	0.00610808	-1869.33	0.0421313
-0.332426	-269.243	0.00590411	-1857.14	0.0407244
-0.305164	-269.701	0.00407149	-1860.3	0.0280836
-0.278171	-269.186	0.00443073	-1856.74	0.0305615
-0.250955	-265.568	0.0051237	-1831.79	0.0353414
-0.223182	-262.245	0.00532547	-1808.87	0.0367331
-0.195958	-256.618	0.00526365	-1770.06	0.0363067
-0.164193	-255.319	0.00417257	-1761.1	0.0287808
-0.136187	-247.125	0.00526186	-1704.58	0.0362943
-0.108707	-232.801	0.00518513	-1605.78	0.0357651
-0.0807211	-213.08	0.00420593	-1469.75	0.029011
-0.052694	-184.948	0.00329764	-1275.7	0.0227459
-0.0264557	-127.839	0.00240268	-881.788	0.0165728
0.00128952	12.3281	0.0013104	85.0349	0.00903869
0.0279759	122.553	0.00211575	845.325	0.0145937
0.0562321	192.111	0.00363542	1325.11	0.0250757
0.083414	217.656	0.0036173	1501.31	0.0249508
0.109052	229.339	0.00413881	1581.9	0.028548
0.136958	247.196	0.00529591	1705.06	0.0365292
0.166628	251.357	0.00466235	1733.77	0.0321592
0.195071	258.094	0.00415044	1780.24	0.0286282
0.221957	262.983	0.00519033	1813.96	0.035801
0.25064	267.353	0.00530975	1844.1	0.0366247
0.279102	265.85	0.00557162	1833.74	0.038431
0.308079	268.422	0.00497399	1851.48	0.0343087
0.336826	268.36	0.00402927	1851.05	0.0277924
0.366368	271.592	0.00424333	1873.34	0.0292689
0.393863	274.445	0.00569033	1893.02	0.0392498
0.420607	276.055	0.0052664	1904.12	0.0363256
0.450436	277.059	0.00607717	1911.05	0.0419181
0.479919	276.013	0.00497097	1903.84	0.0342879
0.509155	274.313	0.00516201	1892.11	0.0356057
0.536922	279.413	0.00578418	1927.29	0.0398972
0.56512	277.6	0.00575143	1914.78	0.0396712
0.594146	281.583	0.0051392	1942.26	0.0354483
0.622632	279.915	0.00474162	1930.75	0.032706
0.648861	281.025	0.00501216	1938.4	0.034572
0.68159	283.133	0.00511278	1952.95	0.035266
0.70756	282.025	0.00548563	1945.31	0.0378378
0.735845	282.429	0.00607999	1948.09	0.0419375
0.764572	279.781	0.00547402	1929.83	0.0377578
0.793237	283.176	0.00674339	1953.25	0.0465134
0.821237	281.886	0.00497686	1944.35	0.0343285
0.852287	285.42	0.00550662	1968.72	0.0379826
0.880999	281.935	0.00487785	1944.68	0.0336456
0.908288	282.583	0.00662776	1949.16	0.0457159
0.9363	279.216	0.00468175	1925.93	0.0322929
0.962515	281.723	0.0054499	1943.22	0.0375914
0.992257	284.706	0.00564754	1963.8	0.0389546
0.997237	284.679	0.00482265	1963.61	0.0332649