File: data/monolayers/nanoparticles/Ol_CoFe_C/vsm/rescale/DD67_LangevinSAXSscaled.xye
#Executed at: 2018-11-13 00:53:52.3006
#Loaded File	 = ../rawdata/DD172_6_HYST_300K.DAT
#particle info	 = Superball Model, r = 56.2266 A, p = 1.53774
#fit report	 = [[Fit Statistics]]
#    # fitting method   = leastsq
#    # function evals   = 96
#    # data points      = 2218
#    # variables        = 3
#    chi-square         = 4102388.52
#    reduced chi-square = 1852.09
#    Akaike info crit   = 16691.4
#    Bayesian info crit = 16708.5
#[[Variables]]
#    Ms:     1402.73 +/- 4.95269 (0.35%) (init = 1)
#    mu:     3792.92 +/- 24.1088 (0.64%) (init = 10000)
#    chi:    843.033 +/- 3.04624 (0.36%) (init = -0.035)
#    sigMu:  0.2780069 (fixed)
#    T:      300 (fixed)
#[[Correlations]] (unreported correlations are < 0.100)
#    C(Ms, chi) = -0.959
#    C(Ms, mu)  = -0.907
#    C(mu, chi) =  0.806
#Ms Should	 = 34.2709 kA/m
#Rescale Factor	 = 0.0244316
#[[Data]]
#B/T	M/kAm-1	sM/kAm-1	M_raw/memu	sM_raw/memu
1.2179e-05	-0.317632	0.0107017	-13.0009	0.438027
0.0463777	7.03384	0.0190199	287.899	0.778495
0.0989163	13.4672	0.0168016	551.22	0.687699
0.148178	17.9336	0.0144714	734.03	0.592322
0.201477	21.6704	0.0140797	886.98	0.57629
0.254133	24.9735	0.0139865	1022.18	0.572473
0.305059	27.6213	0.0130775	1130.55	0.535267
0.35932	30.2568	0.0135189	1238.43	0.553334
0.412231	32.5884	0.0140316	1333.86	0.574319
0.465698	34.774	0.0154771	1423.32	0.633485
0.519387	36.8942	0.013391	1510.1	0.548101
0.571689	38.8117	0.0147597	1588.58	0.604123
0.622926	40.5634	0.0170284	1660.28	0.696981
0.674117	42.3357	0.0161038	1732.82	0.659136
0.728333	44.0706	0.0134991	1803.83	0.552526
0.77943	45.6044	0.0157619	1866.61	0.645142
0.832769	47.133	0.0175721	1929.18	0.719236
0.883469	48.6306	0.0208395	1990.47	0.852973
0.934571	49.9682	0.0179837	2045.22	0.736081
0.98552	51.2935	0.0189007	2099.47	0.773615
1.04223	52.7532	0.021012	2159.21	0.860032
1.0952	54.0373	0.0210462	2211.77	0.861431
1.14855	55.3353	0.0171815	2264.9	0.703248
1.2039	56.5846	0.0202377	2316.04	0.828341
1.25823	57.8261	0.0282761	2366.85	1.15735
1.31337	59.0085	0.0251672	2415.25	1.03011
1.36856	60.1591	0.0247249	2462.34	1.012
1.42528	61.3199	0.0278762	2509.86	1.14099
1.4779	62.3527	0.0208933	2552.13	0.855173
1.52736	63.269	0.0255735	2589.63	1.04673
1.58069	64.3098	0.0224185	2632.23	0.917601
1.62919	65.2349	0.0282341	2670.1	1.15564
1.6857	66.2151	0.0196322	2710.22	0.803557
1.74026	67.197	0.0251406	2750.41	1.02902
1.79109	68.0097	0.0377727	2783.67	1.54606
1.84258	68.8972	0.0236554	2820	0.968227
1.89289	69.7181	0.0348301	2853.6	1.42561
1.94559	70.5701	0.0244361	2888.47	1.00018
1.995	71.4106	0.0306149	2922.87	1.25309
1.93938	70.5606	0.0315194	2888.08	1.2901
1.88446	69.688	0.0242267	2852.37	0.99161
1.82987	68.7796	0.033857	2815.19	1.38578
1.77675	67.8812	0.0289284	2778.41	1.18406
1.72605	66.948	0.0329891	2740.22	1.35026
1.66932	65.9843	0.0267536	2700.77	1.09504
1.61499	65.0025	0.0257078	2660.59	1.05223
1.56365	64.0389	0.0246769	2621.15	1.01004
1.50953	63.0085	0.0208325	2578.97	0.852683
1.45534	61.9891	0.0310677	2537.24	1.27162
1.40098	60.8917	0.0210953	2492.33	0.86344
1.34665	59.7738	0.0225218	2446.57	0.921827
1.29425	58.6907	0.0232867	2402.24	0.953137
1.24443	57.6196	0.0255753	2358.4	1.04681
1.18958	56.3256	0.020813	2305.44	0.851887
1.13778	55.1863	0.0195606	2258.81	0.800627
1.0803	53.8124	0.0198384	2202.57	0.811995
1.02594	52.4599	0.0175311	2147.21	0.717557
0.973339	51.1172	0.0176718	2092.25	0.723317
0.918757	49.6724	0.0151423	2033.12	0.619783
0.866612	48.2227	0.0155627	1973.78	0.63699
0.81751	46.8744	0.0169189	1918.59	0.692498
0.764909	45.251	0.0190905	1852.14	0.781386
0.712458	43.6954	0.018414	1788.48	0.753695
0.660872	42.0051	0.0166592	1719.29	0.681869
0.603029	40.053	0.0136822	1639.39	0.560021
0.551289	38.1902	0.0156486	1563.14	0.640503
0.495594	36.1116	0.0140549	1478.07	0.575272
0.443581	34.0246	0.0146193	1392.65	0.598377
0.390226	31.7933	0.0124852	1301.31	0.511024
0.335111	29.2924	0.0128897	1198.95	0.527584
0.284772	26.6682	0.0120784	1091.54	0.494373
0.234156	23.9253	0.0118743	979.273	0.48602
0.177085	20.2724	0.0135376	829.758	0.554101
0.125452	16.1948	0.0148827	662.863	0.609157
0.0737414	11.1529	0.0157731	456.495	0.6456
0.0250159	4.1729	0.0208735	170.799	0.854364
-0.0258252	-4.39604	0.023513	-179.932	0.962397
-0.0752733	-11.304	0.016251	-462.679	0.665161
-0.127167	-16.5092	0.0114643	-675.731	0.469238
-0.179231	-20.5098	0.0128714	-839.476	0.526834
-0.227367	-23.5078	0.0156155	-962.186	0.639151
-0.282065	-26.5651	0.0140607	-1087.32	0.575513
-0.334904	-29.17	0.0140352	-1193.94	0.574468
-0.38558	-31.5683	0.014878	-1292.11	0.608965
-0.435279	-33.6897	0.0115641	-1378.94	0.473323
-0.49557	-36.0015	0.0141868	-1473.56	0.580674
-0.546164	-37.8704	0.0162613	-1550.06	0.665585
-0.599499	-39.8552	0.0128515	-1631.29	0.52602
-0.653459	-41.7254	0.0153932	-1707.84	0.630052
-0.706483	-43.4133	0.0178682	-1776.93	0.731355
-0.759545	-45.0615	0.0155504	-1844.39	0.636486
-0.811665	-46.6094	0.0166542	-1907.75	0.681666
-0.864989	-48.0988	0.0151316	-1968.71	0.619345
-0.91892	-49.6138	0.0150792	-2030.72	0.617201
-0.969774	-50.9527	0.0187447	-2085.52	0.76723
-1.0236	-52.3442	0.0199829	-2142.48	0.817911
-1.07698	-53.6466	0.018114	-2195.78	0.741415
-1.13191	-54.9506	0.0150593	-2249.16	0.616386
-1.18786	-56.2224	0.016641	-2301.21	0.681124
-1.24194	-57.4619	0.0176076	-2351.95	0.720688
-1.29667	-58.6621	0.0244835	-2401.07	1.00212
-1.34807	-59.7594	0.0240333	-2445.98	0.983696
-1.39779	-60.7869	0.0169374	-2488.04	0.693258
-1.45241	-61.8842	0.0150297	-2532.95	0.615174
-1.5031	-62.8748	0.0207234	-2573.5	0.848219
-1.55846	-63.9039	0.0182513	-2615.62	0.747036
-1.61368	-64.9155	0.0171718	-2657.03	0.702851
-1.66852	-65.9006	0.0259078	-2697.34	1.06042
-1.72123	-66.8282	0.0245735	-2735.31	1.00581
-1.77623	-67.7635	0.0263027	-2773.59	1.07658
-1.8325	-68.7433	0.0220033	-2813.7	0.900607
-1.88927	-69.6871	0.0289807	-2852.33	1.1862
-1.94649	-70.5841	0.0277581	-2889.04	1.13615
-1.99892	-71.4578	0.0278294	-2924.8	1.13907
-1.94131	-70.5431	0.0274599	-2887.37	1.12395
-1.88386	-69.6364	0.0326055	-2850.26	1.33456
-1.82938	-68.7114	0.0272302	-2812.39	1.11455
-1.77478	-67.7911	0.0310503	-2774.73	1.27091
-1.71968	-66.838	0.0262833	-2735.72	1.07579
-1.66321	-65.8753	0.0263697	-2696.31	1.07933
-1.60685	-64.8395	0.0241632	-2653.91	0.989013
-1.54942	-63.7609	0.029284	-2609.77	1.19861
-1.49631	-62.7662	0.0233842	-2569.05	0.957128
-1.43637	-61.594	0.0260351	-2521.07	1.06563
-1.38052	-60.4292	0.0196243	-2473.4	0.803231
-1.32314	-59.2207	0.0212606	-2423.94	0.870206
-1.26653	-58.0518	0.0230499	-2376.09	0.943446
-1.21035	-56.796	0.0198526	-2324.69	0.812575
-1.15536	-55.5153	0.0209895	-2272.27	0.85911
-1.09589	-54.1803	0.0201612	-2217.63	0.825207
-1.0429	-52.8429	0.0235511	-2162.89	0.963958
-0.98796	-51.4396	0.0217996	-2105.45	0.89227
-0.93224	-50.0262	0.0176513	-2047.6	0.722477
-0.877805	-48.5296	0.0139197	-1986.34	0.569739
-0.825325	-47.0307	0.0183032	-1924.99	0.749159
-0.770774	-45.4196	0.0153723	-1859.05	0.629196
-0.713085	-43.6274	0.0150531	-1785.69	0.616131
-0.660187	-41.9555	0.0152291	-1717.26	0.623334
-0.607072	-40.1716	0.0155702	-1644.24	0.637295
-0.549885	-38.1258	0.0161606	-1560.51	0.661463
-0.49527	-36.0638	0.0133409	-1476.11	0.546051
-0.442785	-33.9772	0.0140274	-1390.71	0.574147
-0.388413	-31.6276	0.0122552	-1294.53	0.50161
-0.33232	-29.0019	0.0108811	-1187.06	0.44537
-0.283592	-26.48	0.0129344	-1083.84	0.529412
-0.22772	-23.5557	0.0119567	-964.149	0.489396
-0.174616	-20.0265	0.0139572	-819.696	0.571274
-0.121119	-15.8978	0.0138508	-650.706	0.566919
-0.0687852	-10.4412	0.0190614	-427.365	0.780194
-0.0161424	-2.76606	0.0232808	-113.216	0.952895
0.0361527	6.09888	0.0212588	249.63	0.870134
0.0909389	13.0545	0.0161923	534.329	0.662757
0.141883	17.626	0.0169685	721.44	0.694531
0.196397	21.5682	0.0150293	882.799	0.615157
0.249686	24.853	0.0137613	1017.24	0.563256
0.298398	27.3655	0.0131075	1120.08	0.536497
0.353972	30.0204	0.0130858	1228.75	0.53561
0.407252	32.4722	0.0142075	1329.11	0.58152
0.459139	34.5479	0.0140327	1414.06	0.574367
0.514371	36.7059	0.013089	1502.39	0.535739
0.571389	38.8265	0.0129273	1589.19	0.52912
0.624313	40.6639	0.0173691	1664.39	0.710927
0.678319	42.4957	0.0126653	1739.37	0.518397
0.731884	44.213	0.0180952	1809.66	0.740646
0.789392	45.9717	0.0151208	1881.65	0.618902
0.842513	47.4864	0.0223748	1943.64	0.915812
0.897295	49.0274	0.0167432	2006.72	0.685306
0.949908	50.4401	0.0152515	2064.54	0.624251
1.00782	51.93	0.0192402	2125.52	0.787512
1.06412	53.3521	0.0230672	2183.73	0.944153
1.11961	54.6804	0.0183393	2238.1	0.750638
1.17534	55.9503	0.0179493	2290.08	0.734674
1.23191	57.2551	0.0238268	2343.48	0.975244
1.28793	58.44	0.0149859	2391.98	0.613379
1.3433	59.6152	0.0232589	2440.08	0.951998
1.39575	60.7033	0.0215524	2484.62	0.882152
1.44949	61.7866	0.0262387	2528.96	1.07397
1.50583	62.8562	0.0197186	2572.74	0.807091
1.5628	63.9486	0.019859	2617.45	0.812838
1.6215	65.074	0.0236977	2663.51	0.96996
1.67722	66.0412	0.0280352	2703.1	1.1475
1.73455	67.0497	0.0240998	2744.38	0.986418
1.79314	68.0673	0.0275743	2786.03	1.12863
1.84843	68.989	0.0310514	2823.76	1.27095
1.90667	69.9208	0.0327324	2861.9	1.33975
1.96546	70.8453	0.0285291	2899.73	1.16771
1.98018	71.1203	0.0413992	2910.99	1.69449
1.92521	70.28	0.0289988	2876.59	1.18694
1.87139	69.4069	0.0337797	2840.86	1.38262
1.81604	68.5076	0.029155	2804.05	1.19333
1.75817	67.5038	0.0319507	2762.97	1.30776
1.701575	66.5367	0.0301361	2723.38	1.23349
1.6415	65.4691	0.0222087	2679.68	0.909015
1.58381	64.4411	0.0266693	2637.61	1.09159
1.52772	63.36	0.0270567	2593.36	1.10744
1.46936	62.2429	0.0228945	2547.63	0.937084
1.41381	61.0761	0.0233044	2499.87	0.953863
1.35518	59.928	0.0260816	2452.89	1.06753
1.29956	58.7623	0.0237127	2405.17	0.970573
1.24458	57.5754	0.0259965	2356.59	1.06405
1.19102	56.3646	0.0260941	2307.03	1.06804
1.13153	55.0282	0.0210239	2252.33	0.860518
1.07507	53.6706	0.0183695	2196.77	0.751874
1.02175	52.3009	0.0180676	2140.7	0.739516
0.967036	50.9455	0.0222282	2085.23	0.909811
0.909544	49.431	0.0162366	2023.24	0.664574
0.851774	47.7717	0.0158461	1955.32	0.648589
0.798797	46.256	0.0184464	1893.28	0.755021
0.737721	44.445	0.0160636	1819.16	0.657491
0.681254	42.619	0.0201411	1744.42	0.824387
0.62944	40.9066	0.0156727	1674.33	0.64149
0.576575	39.0607	0.0164785	1598.78	0.674474
0.521737	37.0439	0.0119915	1516.23	0.490817
0.467651	35.0167	0.0146847	1433.25	0.601052
0.411115	32.6555	0.0150703	1336.61	0.616836
0.356507	30.1909	0.0108573	1235.73	0.444395
0.30393	27.675	0.0125608	1132.75	0.514122
0.247187	24.6165	0.01237	1007.56	0.506312
0.197494	21.5811	0.0131595	883.327	0.538625
0.14222	17.6162	0.0124079	721.039	0.507861
0.088173	12.787	0.0157373	523.38	0.644137
0.0360548	6.05657	0.0206578	247.899	0.845534
-3.19699e-05	-0.0966088	0.0150094	-3.95425	0.614344