File: data/monolayers/nanoparticles/Ol_CoFe_C/vsm/rescale/DD67_10K_FC1T_LangevinSAXSscaled.xye
#Executed at: 2018-11-22 19:05:25.1033
#Loaded File	 = ../rawdata/DD172_6_HYST_10K_FC_1T.DAT
#Rescale Factor	 = 0.0244316
#[[Data]]
#B/T	M/kAm-1	sM/kAm-1	M_raw/memu	sM_raw/memu
-3.34923e-05	44.4516	0.014547	1819.43	0.595415
0.203043	46.9439	0.00996587	1921.44	0.407908
0.434616	50.3023	0.00977155	2058.9	0.399955
0.672583	53.5766	0.0111612	2192.92	0.456832
0.90826	56.7745	0.0115479	2323.81	0.472662
1.13136	59.7318	0.011851	2444.85	0.485067
1.3623	62.7441	0.0131218	2568.15	0.537081
1.58938	65.7599	0.0142347	2691.59	0.582636
1.80983	68.7143	0.0131152	2812.51	0.536814
2.03238	71.6821	0.0141891	2933.99	0.580765
2.26082	74.8085	0.0160738	3061.95	0.657908
2.47214	77.7661	0.0116356	3183.01	0.476252
2.66504	80.4164	0.0186748	3291.49	0.764371
2.86729	83.2906	0.0148093	3409.13	0.606151
3.07463	86.1656	0.0161236	3526.8	0.659948
3.27334	88.9678	0.0225708	3641.5	0.923834
3.47617	91.8017	0.0213106	3757.49	0.872255
3.67362	94.5717	0.0186897	3870.87	0.764978
3.87598	97.4148	0.0178248	3987.24	0.729579
4.06841	100.049	0.0206604	4095.04	0.845641
4.25557	102.691	0.0222624	4203.22	0.911211
4.45118	105.242	0.0215495	4307.6	0.882033
4.64512	107.809	0.020667	4412.67	0.845912
4.84226	110.308	0.0202856	4514.96	0.830302
5.04069	112.836	0.0258447	4618.43	1.05784
5.25153	115.426	0.0242668	4724.43	0.993251
5.47197	118.047	0.0296553	4831.71	1.21381
5.69582	120.64	0.0234091	4937.85	0.958146
5.9085	123.093	0.0211415	5038.25	0.865331
6.12589	125.421	0.0196273	5133.54	0.803356
6.35456	127.784	0.0263038	5230.28	1.07663
6.57794	130.06	0.0306661	5323.43	1.25518
6.79061	132.086	0.0253743	5406.34	1.03858
7.01325	134.272	0.0289524	5495.81	1.18504
7.23364	136.245	0.0296858	5576.59	1.21506
7.45528	138.16	0.0339311	5654.96	1.38882
7.68074	140.048	0.0303751	5732.23	1.24327
7.90936	141.911	0.0264433	5808.5	1.08234
8.13605	143.694	0.0366771	5881.47	1.50121
8.36021	145.415	0.0249129	5951.9	1.0197
8.55966	146.824	0.0281728	6009.57	1.15313
8.76754	148.413	0.0303416	6074.63	1.2419
8.97395	149.76	0.0267844	6129.77	1.0963
8.83677	149.227	0.0244388	6107.94	1.00029
8.62339	148.016	0.0240601	6058.36	0.984794
8.40442	146.852	0.0229174	6010.74	0.938021
8.18503	145.428	0.02377	5952.45	0.972917
7.95851	144.024	0.0257056	5894.96	1.05214
7.73285	142.546	0.0295724	5834.48	1.21041
7.50966	141.086	0.0279429	5774.72	1.14372
7.28799	139.597	0.02386	5713.79	0.976603
7.06907	138.077	0.0262015	5651.57	1.07244
6.84838	136.461	0.0211566	5585.42	0.865949
6.627	134.845	0.0249835	5519.27	1.02259
6.39686	133.079	0.0246785	5446.98	1.0101
6.17667	131.32	0.0250599	5374.98	1.02571
5.94652	129.475	0.0203109	5299.47	0.831337
5.71833	127.498	0.0193275	5218.57	0.791083
5.49596	125.484	0.0226817	5136.13	0.928372
5.27007	123.446	0.0202636	5052.71	0.829401
5.04249	121.295	0.0256965	4964.66	1.05177
4.82205	119.147	0.0157293	4876.74	0.643807
4.60593	116.959	0.0247875	4787.2	1.01457
4.38994	114.717	0.0248346	4695.41	1.0165
4.16887	112.315	0.019005	4597.11	0.777885
3.95468	109.914	0.0254763	4498.85	1.04276
3.72959	107.302	0.0200021	4391.95	0.818697
3.50622	104.563	0.0199914	4279.81	0.81826
3.29409	101.97	0.0176955	4173.68	0.724288
3.0722	99.0688	0.0179877	4054.94	0.736244
2.84432	96.066	0.0178229	3932.03	0.7295
2.6169	92.8974	0.0188363	3802.34	0.770981
2.39504	89.7663	0.0154019	3674.18	0.630408
2.17462	86.5311	0.0149414	3541.76	0.611561
1.94501	83.0779	0.0151916	3400.42	0.621802
1.72964	79.7522	0.0147412	3264.3	0.603367
1.5188	76.3548	0.0111099	3125.24	0.454732
1.29838	72.79	0.0132477	2979.33	0.542235
1.08302	69.2474	0.0121018	2834.33	0.495333
0.870089	65.6585	0.0114589	2687.43	0.469017
0.664697	62.1567	0.010601	2544.11	0.433906
0.453567	58.4919	0.00913375	2394.11	0.373849
0.237852	54.6133	0.011138	2235.35	0.455884
0.0236637	50.592	0.0107602	2070.76	0.440419
-0.188896	46.4436	0.00884179	1900.96	0.361899
-0.399971	42.0368	0.0101567	1720.59	0.415717
-0.613697	37.4232	0.0101682	1531.75	0.416189
-0.836101	32.4098	0.0103185	1326.55	0.422341
-1.06353	26.7799	0.0108176	1096.11	0.44277
-1.28541	20.9824	0.0117156	858.822	0.479526
-1.50408	14.6986	0.010205	601.621	0.417698
-1.73269	7.54422	0.0124986	308.789	0.511574
-1.95681	-0.0595727	0.0118277	-2.43834	0.484116
-2.17419	-7.90104	0.0137924	-323.394	0.56453
-2.39883	-16.6159	0.0171368	-680.097	0.701419
-2.61692	-25.5377	0.0140357	-1045.27	0.574488
-2.84911	-35.0488	0.016579	-1434.57	0.678586
-3.06819	-44.1891	0.0158348	-1808.68	0.648125
-3.29534	-53.4862	0.0135881	-2189.22	0.556169
-3.52043	-62.226	0.0184835	-2546.94	0.75654
-3.74031	-70.3001	0.0226183	-2877.42	0.925779
-3.95069	-77.5292	0.0178974	-3173.31	0.732549
-4.16506	-84.3468	0.0219704	-3452.36	0.899262
-4.3857	-90.7671	0.021053	-3715.14	0.86171
-4.59587	-96.384	0.0223226	-3945.05	0.913676
-4.8107	-101.64	0.0211157	-4160.17	0.864277
-5.02835	-106.549	0.0316128	-4361.1	1.29393
-5.25269	-111.159	0.0237869	-4549.81	0.973608
-5.47687	-115.355	0.0257683	-4721.55	1.05471
-5.70943	-119.29	0.0203172	-4882.62	0.831592
-5.94008	-122.858	0.0203403	-5028.65	0.832538
-6.1687	-126.132	0.0200893	-5162.63	0.822264
-6.39909	-129.221	0.0243383	-5289.1	0.996179
-6.63144	-132.105	0.0212204	-5407.13	0.868563
-6.86207	-134.709	0.0253145	-5513.7	1.03614
-7.08317	-137.111	0.0255201	-5612.04	1.04455
-7.318	-139.454	0.0298756	-5707.94	1.22282
-7.54487	-141.599	0.0270159	-5795.71	1.10578
-7.76173	-143.481	0.0323562	-5872.74	1.32436
-7.99209	-145.469	0.0269988	-5954.12	1.10508
-8.21724	-147.286	0.0274759	-6028.48	1.1246
-8.4446	-148.998	0.0260504	-6098.55	1.06626
-8.65173	-150.486	0.0279798	-6159.49	1.14523
-8.87005	-152.015	0.0278887	-6222.04	1.1415
-8.93341	-152.698	0.0299429	-6250.01	1.22558
-8.72039	-151.634	0.0240365	-6206.46	0.983828
-8.49982	-150.397	0.021738	-6155.84	0.889749
-8.27918	-149.151	0.0264151	-6104.82	1.08118
-8.04334	-147.749	0.0272863	-6047.46	1.11684
-7.82862	-146.513	0.025199	-5996.84	1.03141
-7.60705	-145.129	0.0306203	-5940.22	1.25331
-7.3872	-143.723	0.0294085	-5882.66	1.20371
-7.16405	-142.248	0.0224187	-5822.29	0.917607
-6.94268	-140.756	0.0254936	-5761.22	1.04346
-6.70936	-139.154	0.0280168	-5695.64	1.14674
-6.48075	-137.496	0.0294284	-5627.79	1.20452
-6.25612	-135.78	0.027658	-5557.55	1.13206
-6.0317	-133.989	0.0300576	-5484.22	1.23027
-5.80687	-132.191	0.0186866	-5410.66	0.764853
-5.57646	-130.256	0.0312514	-5331.46	1.27914
-5.34562	-128.256	0.0263827	-5249.58	1.07986
-5.12028	-126.208	0.0249484	-5165.75	1.02115
-4.88787	-123.983	0.0286435	-5074.67	1.17239
-4.65628	-121.669	0.0246932	-4979.99	1.01071
-4.4251	-119.29	0.0256547	-4882.6	1.05006
-4.18377	-116.6	0.0153879	-4772.5	0.629834
-3.96514	-114.024	0.0213974	-4667.07	0.875808
-3.73302	-111.298	0.0223777	-4555.5	0.915931
-3.51039	-108.438	0.0186418	-4438.42	0.76302
-3.28759	-105.517	0.0171837	-4318.86	0.703338
-3.05566	-102.2	0.0130648	-4183.1	0.534748
-2.82534	-98.7473	0.0193081	-4041.78	0.790291
-2.59543	-95.124	0.0149365	-3893.48	0.611359
-2.37283	-91.434	0.0154352	-3742.44	0.631769
-2.14919	-87.4629	0.0123019	-3579.9	0.503524
-1.92684	-83.231	0.0134691	-3406.69	0.551298
-1.70793	-78.951	0.0123309	-3231.51	0.504711
-1.50235	-74.5413	0.0136798	-3051.01	0.559919
-1.28364	-69.7454	0.0123883	-2854.71	0.507061
-1.06804	-64.556	0.0114779	-2642.31	0.469798
-0.849318	-59.1855	0.0109509	-2422.49	0.448225
-0.633698	-53.5089	0.0108015	-2190.15	0.44211
-0.411509	-47.233	0.0100088	-1933.27	0.409665
-0.189105	-40.5869	0.01039	-1661.24	0.425267
0.0226037	-34.0137	0.011578	-1392.2	0.473895
0.24775	-26.6604	0.0108349	-1091.22	0.443478
0.465299	-19.1897	0.0141594	-785.444	0.579553
0.686693	-11.4533	0.0126768	-468.79	0.518868
0.905176	-3.46128	0.0115663	-141.672	0.473415
1.12204	4.5134	0.0139081	184.736	0.569267
1.34373	13.0139	0.0144875	532.667	0.592982
1.56681	21.3612	0.0153656	874.324	0.628921
1.78747	29.8322	0.0148089	1221.05	0.606135
2.02407	38.5092	0.0125771	1576.2	0.514786
2.24273	46.3845	0.0139004	1898.54	0.56895
2.47385	54.2264	0.0175078	2219.51	0.716605
2.69354	61.3574	0.019615	2511.39	0.80285
2.9159	68.0487	0.0180527	2785.27	0.738906
3.13381	74.2836	0.0173114	3040.46	0.708563
3.3497	79.9578	0.0169475	3272.72	0.69367
3.57358	85.4671	0.0171708	3498.21	0.702811
3.79121	90.4529	0.0175226	3702.28	0.717211
4.0016	94.8988	0.0204783	3884.26	0.838186
4.20025	98.6816	0.0218622	4039.09	0.89483
4.40313	102.463	0.021966	4193.85	0.89908
4.6111	106.075	0.0212199	4341.69	0.86854
4.81599	109.363	0.0231002	4476.28	0.945504
5.01764	112.412	0.0260053	4601.09	1.06441
5.22978	115.5	0.0222053	4727.48	0.908875
5.43791	118.258	0.0220186	4840.35	0.901231
5.63979	120.89	0.0237179	4948.1	0.970786
5.847	123.372	0.0201286	5049.66	0.823875
6.0586	125.865	0.0247084	5151.7	1.01133
6.26931	128.173	0.0256034	5246.21	1.04796
6.48269	130.375	0.0227445	5336.33	0.930943
6.67936	132.375	0.0265515	5418.18	1.08677
6.87979	134.272	0.0210807	5495.8	0.862843
7.0789	136.112	0.0285274	5571.12	1.16764
7.28107	137.916	0.0267655	5644.98	1.09553
7.48221	139.671	0.0240777	5716.82	0.985513
7.69217	141.347	0.0239943	5785.4	0.982099
7.89235	142.891	0.0293942	5848.62	1.20312
8.10331	144.51	0.0316372	5914.87	1.29493
8.30296	145.998	0.0260407	5975.78	1.06586
8.49487	147.332	0.018524	6030.37	0.758195
8.68357	148.617	0.0289396	6082.98	1.18451
8.86468	149.87	0.0299731	6134.28	1.22681
8.95354	150.624	0.0348219	6165.13	1.42528
8.76357	149.637	0.0318391	6124.72	1.30319
8.5729	148.617	0.0273351	6082.96	1.11884
8.3764	147.492	0.0194782	6036.93	0.797252
8.16875	146.278	0.0287523	5987.22	1.17685
7.95404	144.984	0.0266848	5934.25	1.09222
7.73712	143.624	0.0253555	5878.59	1.03781
7.51888	142.284	0.0293454	5823.74	1.20112
7.30875	140.944	0.031794	5768.9	1.30134
7.10259	139.548	0.0294923	5711.78	1.20713
6.89266	138.142	0.0272607	5654.2	1.1158
6.6825	136.644	0.0261767	5592.89	1.07143
6.4671	135.072	0.0321613	5528.58	1.31638
6.25571	133.504	0.0219754	5464.39	0.899465
6.03923	131.817	0.0255286	5395.33	1.0449
5.81809	130.043	0.0214241	5322.73	0.8769
5.63541	128.541	0.0196557	5261.23	0.804518