File: data/monolayers/nanoparticles/Ac_CoFe_C/edx/data/AH11_5.txt
#FORMAT      : EMSA/MAS Spectral Data File
#VERSION     : 1.0
#TITLE       : Spectrum 1
#DATE        : 04-DEC-2018
#TIME        : 10:28
#OWNER       :
#NPOINTS     : 2048.
#NCOLUMNS    : 1.
#XUNITS      : keV
#YUNITS      : counts
#DATATYPE    : XY
#XPERCHAN    : 0.0100000
#OFFSET      : -0.200000
#SIGNALTYPE  : EDS
#CHOFFSET    : 20.0000
#LIVETIME    : 100
#REALTIME    : 114.384
#BEAMKV      : 20.0000
#PROBECUR    : 0.000000
#MAGCAM      : 1390.00
#XTILTSTGE   : 0.0
#AZIMANGLE   : 0.0
#ELEVANGLE   : 35.0
#XPOSITION mm: 0.0000
#YPOSITION mm: 0.0000
#ZPOSITION mm: 0.0000
##OXINSTPT   : 5
##OXINSTSTROB: 49.24
##OXINSTELEMS: 6,8,11,14,26,27
##OXINSTLABEL: 26, 6.404, Fe
##OXINSTLABEL: 26, 7.058, Fe
##OXINSTLABEL: 26, 0.705, Fe
##OXINSTLABEL: 26, 0.628, Fe
##OXINSTLABEL: 8, 0.525, O
##OXINSTLABEL: 6, 0.277, C
##OXINSTLABEL: 27, 6.930, Co
##OXINSTLABEL: 27, 7.650, Co
##OXINSTLABEL: 27, 0.776, Co
##OXINSTLABEL: 27, 0.694, Co
##OXINSTLABEL: 27, 0.678, Co
##OXINSTLABEL: 14, 1.740, Si
##OXINSTLABEL: 11, 1.041, Na
#SPECTRUM    : Spectral Data Starts Here
-0.20000, 0.
-0.13000, 3.
-0.06000, 41.
0.01000, 5715.
0.08000, 195.
0.15000, 115.
0.22000, 476.
0.29000, 1712.
0.36000, 157.
0.43000, 101.
0.50000, 1081.
0.57000, 401.
0.64000, 236.
0.71000, 723.
0.78000, 304.
0.85000, 70.
0.92000, 54.
0.99000, 66.
1.06000, 81.
1.13000, 67.
1.20000, 78.
1.27000, 80.
1.34000, 91.
1.41000, 101.
1.48000, 88.
1.55000, 95.
1.62000, 96.
1.69000, 115.
1.76000, 166.
1.83000, 116.
1.90000, 111.
1.97000, 108.
2.04000, 125.
2.11000, 104.
2.18000, 103.
2.25000, 96.
2.32000, 112.
2.39000, 94.
2.46000, 102.
2.53000, 102.
2.60000, 93.
2.67000, 98.
2.74000, 97.
2.81000, 91.
2.88000, 87.
2.95000, 94.
3.02000, 97.
3.09000, 82.
3.16000, 81.
3.23000, 82.
3.30000, 92.
3.37000, 83.
3.44000, 83.
3.51000, 85.
3.58000, 83.
3.65000, 76.
3.72000, 71.
3.79000, 70.
3.86000, 71.
3.93000, 60.
4.00000, 70.
4.07000, 67.
4.14000, 66.
4.21000, 57.
4.28000, 58.
4.35000, 54.
4.42000, 56.
4.49000, 58.
4.56000, 49.
4.63000, 61.
4.70000, 58.
4.77000, 61.
4.84000, 54.
4.91000, 57.
4.98000, 45.
5.05000, 55.
5.12000, 48.
5.19000, 51.
5.26000, 49.
5.33000, 43.
5.40000, 43.
5.47000, 42.
5.54000, 46.
5.61000, 43.
5.68000, 45.
5.75000, 44.
5.82000, 35.
5.89000, 39.
5.96000, 33.
6.03000, 38.
6.10000, 43.
6.17000, 54.
6.24000, 91.
6.31000, 574.
6.38000, 1809.
6.45000, 1274.
6.52000, 244.
6.59000, 45.
6.66000, 38.
6.73000, 36.
6.80000, 98.
6.87000, 349.
6.94000, 558.
7.01000, 359.
7.08000, 267.
7.15000, 99.
7.22000, 34.
7.29000, 17.
7.36000, 24.
7.43000, 20.
7.50000, 26.
7.57000, 59.
7.64000, 78.
7.71000, 69.
7.78000, 28.
7.85000, 26.
7.92000, 23.
7.99000, 30.
8.06000, 18.
8.13000, 20.
8.20000, 14.
8.27000, 22.
8.34000, 20.
8.41000, 17.
8.48000, 23.
8.55000, 26.
8.62000, 28.
8.69000, 15.
8.76000, 19.
8.83000, 17.
8.90000, 20.
8.97000, 17.
9.04000, 20.
9.11000, 22.
9.18000, 17.
9.25000, 21.
9.32000, 18.
9.39000, 22.
9.46000, 15.
9.53000, 12.
9.60000, 16.
9.67000, 13.
9.74000, 20.
9.81000, 17.
9.88000, 16.
9.95000, 14.
10.02000, 13.
10.09000, 17.
10.16000, 12.
10.23000, 14.
10.30000, 19.
10.37000, 12.
10.44000, 13.
10.51000, 12.
10.58000, 9.
10.65000, 16.
10.72000, 10.
10.79000, 14.
10.86000, 17.
10.93000, 12.
11.00000, 10.
11.07000, 11.
11.14000, 10.
11.21000, 12.
11.28000, 7.
11.35000, 11.
11.42000, 15.
11.49000, 15.
11.56000, 13.
11.63000, 12.
11.70000, 10.
11.77000, 9.
11.84000, 11.
11.91000, 13.
11.98000, 7.
12.05000, 6.
12.12000, 5.
12.19000, 7.
12.26000, 10.
12.33000, 9.
12.40000, 12.
12.47000, 8.
12.54000, 9.
12.61000, 11.
12.68000, 9.
12.75000, 8.
12.82000, 10.
12.89000, 8.
12.96000, 7.
13.03000, 5.
13.10000, 11.
13.17000, 9.
13.24000, 5.
13.31000, 6.
13.38000, 4.
13.45000, 6.
13.52000, 5.
13.59000, 8.
13.66000, 6.
13.73000, 6.
13.80000, 6.
13.87000, 4.
13.94000, 9.
14.01000, 6.
14.08000, 6.
14.15000, 9.
14.22000, 4.
14.29000, 5.
14.36000, 5.
14.43000, 5.
14.50000, 5.
14.57000, 4.
14.64000, 11.
14.71000, 7.
14.78000, 3.
14.85000, 4.
14.92000, 7.
14.99000, 4.
15.06000, 5.
15.13000, 7.
15.20000, 4.
15.27000, 5.
15.34000, 5.
15.41000, 3.
15.48000, 2.
15.55000, 3.
15.62000, 3.
15.69000, 3.
15.76000, 2.
15.83000, 5.
15.90000, 6.
15.97000, 2.
16.04000, 3.
16.11000, 0.
16.18000, 2.
16.25000, 6.
16.32000, 2.
16.39000, 4.
16.46000, 6.
16.53000, 5.
16.60000, 3.
16.67000, 2.
16.74000, 3.
16.81000, 2.
16.88000, 2.
16.95000, 1.
17.02000, 1.
17.09000, 0.
17.16000, 2.
17.23000, 3.
17.30000, 0.
17.37000, 3.
17.44000, 1.
17.51000, 2.
17.58000, 3.
17.65000, 3.
17.72000, 3.
17.79000, 2.
17.86000, 0.
17.93000, 1.
18.00000, 0.
18.07000, 3.
18.14000, 1.
18.21000, 3.
18.28000, 0.
18.35000, 2.
18.42000, 1.
18.49000, 0.
18.56000, 1.
18.63000, 1.
18.70000, 0.
18.77000, 1.
18.84000, 0.
18.91000, 0.
18.98000, 0.
19.05000, 1.
19.12000, 1.
19.19000, 1.
19.26000, 0.
19.33000, 0.
19.40000, 0.
19.47000, 0.
19.54000, 0.
19.61000, 0.
19.68000, 0.
19.75000, 0.
19.82000, 0.
19.89000, 0.
19.96000, 0.
20.03000, 0.
20.10000, 0.
20.17000, 0.
20.24000, 0.
20.27000, 0.
#ENDOFDATA   :