File: data/monolayers/nanoparticles/Ac_CoFe_C/edx/data/AH11_1.txt
#FORMAT      : EMSA/MAS Spectral Data File
#VERSION     : 1.0
#TITLE       : Spectrum 1
#DATE        : 04-DEC-2018
#TIME        : 10:16
#OWNER       :
#NPOINTS     : 2048.
#NCOLUMNS    : 1.
#XUNITS      : keV
#YUNITS      : counts
#DATATYPE    : XY
#XPERCHAN    : 0.0100000
#OFFSET      : -0.200000
#SIGNALTYPE  : EDS
#CHOFFSET    : 20.0000
#LIVETIME    : 100
#REALTIME    : 115.761
#BEAMKV      : 20.0000
#PROBECUR    : 0.000000
#MAGCAM      : 3213.00
#XTILTSTGE   : 0.0
#AZIMANGLE   : 0.0
#ELEVANGLE   : 35.0
#XPOSITION mm: 0.0000
#YPOSITION mm: 0.0000
#ZPOSITION mm: 0.0000
##OXINSTPT   : 5
##OXINSTSTROB: 50.43
##OXINSTELEMS: 6,8,11,14,26,27
##OXINSTLABEL: 14, 1.740, Si
##OXINSTLABEL: 8, 0.525, O
##OXINSTLABEL: 27, 6.930, Co
##OXINSTLABEL: 27, 7.650, Co
##OXINSTLABEL: 27, 0.776, Co
##OXINSTLABEL: 27, 0.694, Co
##OXINSTLABEL: 27, 0.678, Co
##OXINSTLABEL: 26, 6.404, Fe
##OXINSTLABEL: 26, 7.058, Fe
##OXINSTLABEL: 26, 0.705, Fe
##OXINSTLABEL: 26, 0.628, Fe
##OXINSTLABEL: 6, 0.277, C
##OXINSTLABEL: 11, 1.041, Na
#SPECTRUM    : Spectral Data Starts Here
-0.20000, 0.
-0.13000, 3.
-0.06000, 183.
0.01000, 7820.
0.08000, 863.
0.15000, 178.
0.22000, 414.
0.29000, 1240.
0.36000, 51.
0.43000, 78.
0.50000, 1292.
0.57000, 522.
0.64000, 298.
0.71000, 807.
0.78000, 345.
0.85000, 67.
0.92000, 50.
0.99000, 58.
1.06000, 81.
1.13000, 73.
1.20000, 82.
1.27000, 87.
1.34000, 73.
1.41000, 108.
1.48000, 107.
1.55000, 94.
1.62000, 102.
1.69000, 145.
1.76000, 207.
1.83000, 122.
1.90000, 110.
1.97000, 96.
2.04000, 101.
2.11000, 90.
2.18000, 97.
2.25000, 110.
2.32000, 105.
2.39000, 85.
2.46000, 102.
2.53000, 100.
2.60000, 100.
2.67000, 83.
2.74000, 98.
2.81000, 92.
2.88000, 79.
2.95000, 78.
3.02000, 82.
3.09000, 87.
3.16000, 72.
3.23000, 92.
3.30000, 71.
3.37000, 66.
3.44000, 76.
3.51000, 73.
3.58000, 72.
3.65000, 91.
3.72000, 67.
3.79000, 67.
3.86000, 71.
3.93000, 61.
4.00000, 60.
4.07000, 58.
4.14000, 53.
4.21000, 56.
4.28000, 52.
4.35000, 55.
4.42000, 53.
4.49000, 53.
4.56000, 62.
4.63000, 65.
4.70000, 60.
4.77000, 55.
4.84000, 58.
4.91000, 40.
4.98000, 50.
5.05000, 41.
5.12000, 44.
5.19000, 43.
5.26000, 42.
5.33000, 44.
5.40000, 48.
5.47000, 52.
5.54000, 40.
5.61000, 47.
5.68000, 30.
5.75000, 43.
5.82000, 43.
5.89000, 32.
5.96000, 36.
6.03000, 28.
6.10000, 43.
6.17000, 43.
6.24000, 77.
6.31000, 537.
6.38000, 1533.
6.45000, 1189.
6.52000, 268.
6.59000, 42.
6.66000, 41.
6.73000, 32.
6.80000, 81.
6.87000, 289.
6.94000, 429.
7.01000, 353.
7.08000, 220.
7.15000, 78.
7.22000, 32.
7.29000, 32.
7.36000, 18.
7.43000, 26.
7.50000, 23.
7.57000, 43.
7.64000, 64.
7.71000, 42.
7.78000, 26.
7.85000, 19.
7.92000, 27.
7.99000, 19.
8.06000, 18.
8.13000, 16.
8.20000, 17.
8.27000, 17.
8.34000, 22.
8.41000, 17.
8.48000, 23.
8.55000, 17.
8.62000, 21.
8.69000, 12.
8.76000, 21.
8.83000, 14.
8.90000, 15.
8.97000, 23.
9.04000, 13.
9.11000, 14.
9.18000, 15.
9.25000, 14.
9.32000, 14.
9.39000, 18.
9.46000, 13.
9.53000, 12.
9.60000, 8.
9.67000, 7.
9.74000, 9.
9.81000, 11.
9.88000, 10.
9.95000, 13.
10.02000, 13.
10.09000, 8.
10.16000, 11.
10.23000, 10.
10.30000, 14.
10.37000, 12.
10.44000, 12.
10.51000, 10.
10.58000, 11.
10.65000, 9.
10.72000, 12.
10.79000, 14.
10.86000, 13.
10.93000, 13.
11.00000, 6.
11.07000, 11.
11.14000, 8.
11.21000, 15.
11.28000, 9.
11.35000, 10.
11.42000, 10.
11.49000, 13.
11.56000, 6.
11.63000, 9.
11.70000, 11.
11.77000, 8.
11.84000, 7.
11.91000, 11.
11.98000, 8.
12.05000, 11.
12.12000, 8.
12.19000, 11.
12.26000, 10.
12.33000, 4.
12.40000, 3.
12.47000, 8.
12.54000, 8.
12.61000, 7.
12.68000, 7.
12.75000, 8.
12.82000, 7.
12.89000, 11.
12.96000, 7.
13.03000, 3.
13.10000, 9.
13.17000, 5.
13.24000, 5.
13.31000, 9.
13.38000, 5.
13.45000, 4.
13.52000, 5.
13.59000, 5.
13.66000, 3.
13.73000, 5.
13.80000, 6.
13.87000, 5.
13.94000, 5.
14.01000, 8.
14.08000, 9.
14.15000, 5.
14.22000, 6.
14.29000, 2.
14.36000, 4.
14.43000, 2.
14.50000, 7.
14.57000, 4.
14.64000, 4.
14.71000, 6.
14.78000, 2.
14.85000, 3.
14.92000, 6.
14.99000, 3.
15.06000, 7.
15.13000, 4.
15.20000, 4.
15.27000, 1.
15.34000, 3.
15.41000, 4.
15.48000, 3.
15.55000, 2.
15.62000, 1.
15.69000, 5.
15.76000, 3.
15.83000, 3.
15.90000, 0.
15.97000, 0.
16.04000, 2.
16.11000, 2.
16.18000, 3.
16.25000, 0.
16.32000, 5.
16.39000, 3.
16.46000, 3.
16.53000, 1.
16.60000, 1.
16.67000, 2.
16.74000, 2.
16.81000, 3.
16.88000, 0.
16.95000, 4.
17.02000, 1.
17.09000, 0.
17.16000, 2.
17.23000, 2.
17.30000, 3.
17.37000, 1.
17.44000, 3.
17.51000, 2.
17.58000, 1.
17.65000, 1.
17.72000, 1.
17.79000, 1.
17.86000, 0.
17.93000, 1.
18.00000, 2.
18.07000, 0.
18.14000, 1.
18.21000, 0.
18.28000, 0.
18.35000, 0.
18.42000, 0.
18.49000, 1.
18.56000, 1.
18.63000, 0.
18.70000, 0.
18.77000, 1.
18.84000, 0.
18.91000, 0.
18.98000, 0.
19.05000, 0.
19.12000, 0.
19.19000, 0.
19.26000, 0.
19.33000, 0.
19.40000, 0.
19.47000, 0.
19.54000, 0.
19.61000, 0.
19.68000, 0.
19.75000, 0.
19.82000, 0.
19.89000, 0.
19.96000, 0.
20.03000, 0.
20.10000, 0.
20.17000, 0.
20.24000, 0.
20.27000, 0.
#ENDOFDATA   :