File: data/monolayers/nanoparticles/Ac_CoFe_C/edx/data/AH11_4.txt
#FORMAT      : EMSA/MAS Spectral Data File
#VERSION     : 1.0
#TITLE       : Spectrum 1
#DATE        : 04-DEC-2018
#TIME        : 10:26
#OWNER       :
#NPOINTS     : 2048.
#NCOLUMNS    : 1.
#XUNITS      : keV
#YUNITS      : counts
#DATATYPE    : XY
#XPERCHAN    : 0.0100000
#OFFSET      : -0.200000
#SIGNALTYPE  : EDS
#CHOFFSET    : 20.0000
#LIVETIME    : 100
#REALTIME    : 113.975
#BEAMKV      : 20.0000
#PROBECUR    : 0.000000
#MAGCAM      : 1390.00
#XTILTSTGE   : 0.0
#AZIMANGLE   : 0.0
#ELEVANGLE   : 35.0
#XPOSITION mm: 0.0000
#YPOSITION mm: 0.0000
#ZPOSITION mm: 0.0000
##OXINSTPT   : 5
##OXINSTSTROB: 49.42
##OXINSTELEMS: 6,8,14,26,27
##OXINSTLABEL: 14, 1.740, Si
##OXINSTLABEL: 26, 6.404, Fe
##OXINSTLABEL: 26, 7.058, Fe
##OXINSTLABEL: 26, 0.705, Fe
##OXINSTLABEL: 26, 0.628, Fe
##OXINSTLABEL: 8, 0.525, O
##OXINSTLABEL: 27, 6.930, Co
##OXINSTLABEL: 27, 7.650, Co
##OXINSTLABEL: 27, 0.776, Co
##OXINSTLABEL: 27, 0.694, Co
##OXINSTLABEL: 27, 0.678, Co
##OXINSTLABEL: 6, 0.277, C
#SPECTRUM    : Spectral Data Starts Here
-0.20000, 0.
-0.13000, 2.
-0.06000, 54.
0.01000, 5963.
0.08000, 205.
0.15000, 77.
0.22000, 167.
0.29000, 613.
0.36000, 43.
0.43000, 68.
0.50000, 1304.
0.57000, 481.
0.64000, 252.
0.71000, 766.
0.78000, 309.
0.85000, 53.
0.92000, 33.
0.99000, 40.
1.06000, 51.
1.13000, 53.
1.20000, 63.
1.27000, 62.
1.34000, 77.
1.41000, 69.
1.48000, 86.
1.55000, 91.
1.62000, 96.
1.69000, 219.
1.76000, 419.
1.83000, 133.
1.90000, 98.
1.97000, 93.
2.04000, 92.
2.11000, 111.
2.18000, 99.
2.25000, 98.
2.32000, 94.
2.39000, 96.
2.46000, 102.
2.53000, 89.
2.60000, 90.
2.67000, 86.
2.74000, 93.
2.81000, 79.
2.88000, 95.
2.95000, 90.
3.02000, 85.
3.09000, 85.
3.16000, 80.
3.23000, 80.
3.30000, 82.
3.37000, 76.
3.44000, 78.
3.51000, 68.
3.58000, 76.
3.65000, 78.
3.72000, 70.
3.79000, 69.
3.86000, 69.
3.93000, 71.
4.00000, 70.
4.07000, 64.
4.14000, 60.
4.21000, 50.
4.28000, 57.
4.35000, 58.
4.42000, 64.
4.49000, 68.
4.56000, 60.
4.63000, 55.
4.70000, 54.
4.77000, 52.
4.84000, 47.
4.91000, 40.
4.98000, 52.
5.05000, 50.
5.12000, 54.
5.19000, 42.
5.26000, 42.
5.33000, 49.
5.40000, 33.
5.47000, 49.
5.54000, 46.
5.61000, 39.
5.68000, 35.
5.75000, 38.
5.82000, 39.
5.89000, 42.
5.96000, 41.
6.03000, 40.
6.10000, 33.
6.17000, 47.
6.24000, 84.
6.31000, 573.
6.38000, 1730.
6.45000, 1342.
6.52000, 255.
6.59000, 53.
6.66000, 29.
6.73000, 39.
6.80000, 70.
6.87000, 351.
6.94000, 512.
7.01000, 370.
7.08000, 257.
7.15000, 82.
7.22000, 33.
7.29000, 27.
7.36000, 28.
7.43000, 24.
7.50000, 17.
7.57000, 34.
7.64000, 96.
7.71000, 40.
7.78000, 14.
7.85000, 28.
7.92000, 21.
7.99000, 20.
8.06000, 22.
8.13000, 25.
8.20000, 16.
8.27000, 19.
8.34000, 19.
8.41000, 20.
8.48000, 12.
8.55000, 21.
8.62000, 19.
8.69000, 25.
8.76000, 22.
8.83000, 14.
8.90000, 17.
8.97000, 18.
9.04000, 24.
9.11000, 20.
9.18000, 21.
9.25000, 16.
9.32000, 13.
9.39000, 14.
9.46000, 10.
9.53000, 16.
9.60000, 13.
9.67000, 20.
9.74000, 15.
9.81000, 20.
9.88000, 13.
9.95000, 17.
10.02000, 15.
10.09000, 16.
10.16000, 17.
10.23000, 14.
10.30000, 12.
10.37000, 14.
10.44000, 13.
10.51000, 13.
10.58000, 12.
10.65000, 13.
10.72000, 11.
10.79000, 12.
10.86000, 15.
10.93000, 12.
11.00000, 9.
11.07000, 9.
11.14000, 17.
11.21000, 13.
11.28000, 9.
11.35000, 10.
11.42000, 10.
11.49000, 15.
11.56000, 10.
11.63000, 16.
11.70000, 11.
11.77000, 10.
11.84000, 10.
11.91000, 11.
11.98000, 8.
12.05000, 8.
12.12000, 15.
12.19000, 9.
12.26000, 12.
12.33000, 8.
12.40000, 13.
12.47000, 11.
12.54000, 7.
12.61000, 9.
12.68000, 6.
12.75000, 13.
12.82000, 7.
12.89000, 9.
12.96000, 9.
13.03000, 9.
13.10000, 12.
13.17000, 10.
13.24000, 4.
13.31000, 7.
13.38000, 8.
13.45000, 10.
13.52000, 6.
13.59000, 12.
13.66000, 7.
13.73000, 3.
13.80000, 5.
13.87000, 1.
13.94000, 5.
14.01000, 5.
14.08000, 8.
14.15000, 8.
14.22000, 7.
14.29000, 6.
14.36000, 6.
14.43000, 6.
14.50000, 9.
14.57000, 6.
14.64000, 3.
14.71000, 6.
14.78000, 9.
14.85000, 6.
14.92000, 7.
14.99000, 3.
15.06000, 6.
15.13000, 3.
15.20000, 3.
15.27000, 3.
15.34000, 5.
15.41000, 4.
15.48000, 4.
15.55000, 2.
15.62000, 5.
15.69000, 7.
15.76000, 9.
15.83000, 4.
15.90000, 3.
15.97000, 2.
16.04000, 2.
16.11000, 3.
16.18000, 6.
16.25000, 5.
16.32000, 0.
16.39000, 2.
16.46000, 4.
16.53000, 4.
16.60000, 3.
16.67000, 6.
16.74000, 1.
16.81000, 3.
16.88000, 1.
16.95000, 3.
17.02000, 0.
17.09000, 2.
17.16000, 2.
17.23000, 3.
17.30000, 3.
17.37000, 3.
17.44000, 1.
17.51000, 3.
17.58000, 1.
17.65000, 4.
17.72000, 1.
17.79000, 2.
17.86000, 1.
17.93000, 1.
18.00000, 3.
18.07000, 1.
18.14000, 2.
18.21000, 1.
18.28000, 0.
18.35000, 0.
18.42000, 2.
18.49000, 1.
18.56000, 1.
18.63000, 0.
18.70000, 1.
18.77000, 0.
18.84000, 0.
18.91000, 0.
18.98000, 0.
19.05000, 1.
19.12000, 1.
19.19000, 1.
19.26000, 0.
19.33000, 0.
19.40000, 1.
19.47000, 0.
19.54000, 0.
19.61000, 1.
19.68000, 0.
19.75000, 0.
19.82000, 0.
19.89000, 0.
19.96000, 0.
20.03000, 0.
20.10000, 0.
20.17000, 0.
20.24000, 0.
20.27000, 0.
#ENDOFDATA   :