File: data/monolayers/nanoparticles/Ac_CoFe_C/edx/data/AH11_2.txt
#FORMAT      : EMSA/MAS Spectral Data File
#VERSION     : 1.0
#TITLE       : Spectrum 1
#DATE        : 04-DEC-2018
#TIME        : 10:20
#OWNER       :
#NPOINTS     : 2048.
#NCOLUMNS    : 1.
#XUNITS      : keV
#YUNITS      : counts
#DATATYPE    : XY
#XPERCHAN    : 0.0100000
#OFFSET      : -0.200000
#SIGNALTYPE  : EDS
#CHOFFSET    : 20.0000
#LIVETIME    : 100
#REALTIME    : 112.747
#BEAMKV      : 20.0000
#PROBECUR    : 0.000000
#MAGCAM      : 1390.00
#XTILTSTGE   : 0.0
#AZIMANGLE   : 0.0
#ELEVANGLE   : 35.0
#XPOSITION mm: 0.0000
#YPOSITION mm: 0.0000
#ZPOSITION mm: 0.0000
##OXINSTPT   : 5
##OXINSTSTROB: 49.11
##OXINSTELEMS: 6,8,11,14,26,27
##OXINSTLABEL: 26, 6.404, Fe
##OXINSTLABEL: 26, 7.058, Fe
##OXINSTLABEL: 26, 0.705, Fe
##OXINSTLABEL: 26, 0.628, Fe
##OXINSTLABEL: 8, 0.525, O
##OXINSTLABEL: 14, 1.740, Si
##OXINSTLABEL: 27, 6.930, Co
##OXINSTLABEL: 27, 7.650, Co
##OXINSTLABEL: 27, 0.776, Co
##OXINSTLABEL: 27, 0.694, Co
##OXINSTLABEL: 27, 0.678, Co
##OXINSTLABEL: 6, 0.277, C
##OXINSTLABEL: 11, 1.041, Na
#SPECTRUM    : Spectral Data Starts Here
-0.20000, 0.
-0.13000, 0.
-0.06000, 38.
0.01000, 5605.
0.08000, 106.
0.15000, 28.
0.22000, 202.
0.29000, 908.
0.36000, 21.
0.43000, 45.
0.50000, 1050.
0.57000, 369.
0.64000, 195.
0.71000, 647.
0.78000, 245.
0.85000, 53.
0.92000, 44.
0.99000, 40.
1.06000, 82.
1.13000, 64.
1.20000, 69.
1.27000, 64.
1.34000, 72.
1.41000, 79.
1.48000, 101.
1.55000, 94.
1.62000, 89.
1.69000, 117.
1.76000, 195.
1.83000, 110.
1.90000, 103.
1.97000, 101.
2.04000, 110.
2.11000, 96.
2.18000, 96.
2.25000, 89.
2.32000, 114.
2.39000, 86.
2.46000, 101.
2.53000, 99.
2.60000, 89.
2.67000, 96.
2.74000, 102.
2.81000, 85.
2.88000, 79.
2.95000, 73.
3.02000, 86.
3.09000, 84.
3.16000, 82.
3.23000, 74.
3.30000, 82.
3.37000, 75.
3.44000, 67.
3.51000, 61.
3.58000, 70.
3.65000, 64.
3.72000, 62.
3.79000, 64.
3.86000, 65.
3.93000, 70.
4.00000, 56.
4.07000, 71.
4.14000, 54.
4.21000, 52.
4.28000, 55.
4.35000, 59.
4.42000, 60.
4.49000, 57.
4.56000, 51.
4.63000, 50.
4.70000, 58.
4.77000, 39.
4.84000, 42.
4.91000, 58.
4.98000, 44.
5.05000, 42.
5.12000, 52.
5.19000, 55.
5.26000, 41.
5.33000, 37.
5.40000, 45.
5.47000, 46.
5.54000, 35.
5.61000, 35.
5.68000, 40.
5.75000, 41.
5.82000, 34.
5.89000, 38.
5.96000, 34.
6.03000, 31.
6.10000, 40.
6.17000, 34.
6.24000, 85.
6.31000, 499.
6.38000, 1626.
6.45000, 1183.
6.52000, 236.
6.59000, 34.
6.66000, 40.
6.73000, 35.
6.80000, 64.
6.87000, 297.
6.94000, 465.
7.01000, 386.
7.08000, 244.
7.15000, 101.
7.22000, 33.
7.29000, 33.
7.36000, 25.
7.43000, 23.
7.50000, 27.
7.57000, 44.
7.64000, 60.
7.71000, 60.
7.78000, 34.
7.85000, 23.
7.92000, 16.
7.99000, 22.
8.06000, 19.
8.13000, 21.
8.20000, 18.
8.27000, 22.
8.34000, 22.
8.41000, 19.
8.48000, 16.
8.55000, 17.
8.62000, 19.
8.69000, 19.
8.76000, 14.
8.83000, 16.
8.90000, 14.
8.97000, 16.
9.04000, 18.
9.11000, 11.
9.18000, 14.
9.25000, 13.
9.32000, 17.
9.39000, 17.
9.46000, 11.
9.53000, 11.
9.60000, 22.
9.67000, 14.
9.74000, 13.
9.81000, 15.
9.88000, 21.
9.95000, 11.
10.02000, 18.
10.09000, 12.
10.16000, 12.
10.23000, 14.
10.30000, 14.
10.37000, 11.
10.44000, 10.
10.51000, 12.
10.58000, 10.
10.65000, 14.
10.72000, 11.
10.79000, 9.
10.86000, 12.
10.93000, 11.
11.00000, 12.
11.07000, 14.
11.14000, 7.
11.21000, 11.
11.28000, 9.
11.35000, 12.
11.42000, 5.
11.49000, 14.
11.56000, 8.
11.63000, 11.
11.70000, 14.
11.77000, 9.
11.84000, 9.
11.91000, 16.
11.98000, 6.
12.05000, 5.
12.12000, 6.
12.19000, 12.
12.26000, 7.
12.33000, 8.
12.40000, 12.
12.47000, 6.
12.54000, 6.
12.61000, 9.
12.68000, 7.
12.75000, 9.
12.82000, 6.
12.89000, 5.
12.96000, 6.
13.03000, 9.
13.10000, 8.
13.17000, 7.
13.24000, 8.
13.31000, 9.
13.38000, 6.
13.45000, 8.
13.52000, 10.
13.59000, 8.
13.66000, 6.
13.73000, 4.
13.80000, 6.
13.87000, 5.
13.94000, 9.
14.01000, 9.
14.08000, 7.
14.15000, 6.
14.22000, 6.
14.29000, 5.
14.36000, 2.
14.43000, 10.
14.50000, 7.
14.57000, 4.
14.64000, 5.
14.71000, 5.
14.78000, 8.
14.85000, 5.
14.92000, 2.
14.99000, 6.
15.06000, 3.
15.13000, 6.
15.20000, 2.
15.27000, 3.
15.34000, 9.
15.41000, 2.
15.48000, 6.
15.55000, 1.
15.62000, 3.
15.69000, 4.
15.76000, 2.
15.83000, 4.
15.90000, 5.
15.97000, 3.
16.04000, 2.
16.11000, 4.
16.18000, 2.
16.25000, 1.
16.32000, 2.
16.39000, 2.
16.46000, 4.
16.53000, 2.
16.60000, 2.
16.67000, 2.
16.74000, 3.
16.81000, 4.
16.88000, 3.
16.95000, 0.
17.02000, 3.
17.09000, 2.
17.16000, 5.
17.23000, 0.
17.30000, 0.
17.37000, 1.
17.44000, 0.
17.51000, 3.
17.58000, 0.
17.65000, 2.
17.72000, 1.
17.79000, 0.
17.86000, 0.
17.93000, 2.
18.00000, 1.
18.07000, 0.
18.14000, 3.
18.21000, 1.
18.28000, 0.
18.35000, 0.
18.42000, 0.
18.49000, 0.
18.56000, 1.
18.63000, 1.
18.70000, 0.
18.77000, 1.
18.84000, 2.
18.91000, 0.
18.98000, 0.
19.05000, 0.
19.12000, 0.
19.19000, 0.
19.26000, 1.
19.33000, 0.
19.40000, 0.
19.47000, 1.
19.54000, 0.
19.61000, 0.
19.68000, 0.
19.75000, 0.
19.82000, 0.
19.89000, 0.
19.96000, 0.
20.03000, 0.
20.10000, 0.
20.17000, 0.
20.24000, 0.
20.27000, 0.
#ENDOFDATA   :