File: data/monolayers/nanoparticles/Ac_CoFe_C/edx/data/AH11_3.txt
#FORMAT      : EMSA/MAS Spectral Data File
#VERSION     : 1.0
#TITLE       : Spectrum 1
#DATE        : 04-DEC-2018
#TIME        : 10:23
#OWNER       :
#NPOINTS     : 2048.
#NCOLUMNS    : 1.
#XUNITS      : keV
#YUNITS      : counts
#DATATYPE    : XY
#XPERCHAN    : 0.0100000
#OFFSET      : -0.200000
#SIGNALTYPE  : EDS
#CHOFFSET    : 20.0000
#LIVETIME    : 100
#REALTIME    : 118.365
#BEAMKV      : 20.0000
#PROBECUR    : 0.000000
#MAGCAM      : 1390.00
#XTILTSTGE   : 0.0
#AZIMANGLE   : 0.0
#ELEVANGLE   : 35.0
#XPOSITION mm: 0.0000
#YPOSITION mm: 0.0000
#ZPOSITION mm: 0.0000
##OXINSTPT   : 5
##OXINSTSTROB: 50.14
##OXINSTELEMS: 6,8,14,26,27
##OXINSTLABEL: 8, 0.525, O
##OXINSTLABEL: 14, 1.740, Si
##OXINSTLABEL: 26, 6.404, Fe
##OXINSTLABEL: 26, 7.058, Fe
##OXINSTLABEL: 26, 0.705, Fe
##OXINSTLABEL: 26, 0.628, Fe
##OXINSTLABEL: 27, 6.930, Co
##OXINSTLABEL: 27, 7.650, Co
##OXINSTLABEL: 27, 0.776, Co
##OXINSTLABEL: 27, 0.694, Co
##OXINSTLABEL: 27, 0.678, Co
##OXINSTLABEL: 6, 0.277, C
#SPECTRUM    : Spectral Data Starts Here
-0.20000, 0.
-0.13000, 13.
-0.06000, 290.
0.01000, 7748.
0.08000, 1049.
0.15000, 399.
0.22000, 331.
0.29000, 1165.
0.36000, 37.
0.43000, 74.
0.50000, 1161.
0.57000, 467.
0.64000, 259.
0.71000, 740.
0.78000, 296.
0.85000, 69.
0.92000, 41.
0.99000, 57.
1.06000, 77.
1.13000, 68.
1.20000, 65.
1.27000, 83.
1.34000, 71.
1.41000, 96.
1.48000, 102.
1.55000, 106.
1.62000, 108.
1.69000, 180.
1.76000, 323.
1.83000, 122.
1.90000, 103.
1.97000, 109.
2.04000, 111.
2.11000, 96.
2.18000, 97.
2.25000, 105.
2.32000, 106.
2.39000, 92.
2.46000, 108.
2.53000, 96.
2.60000, 104.
2.67000, 96.
2.74000, 87.
2.81000, 95.
2.88000, 81.
2.95000, 86.
3.02000, 88.
3.09000, 88.
3.16000, 94.
3.23000, 86.
3.30000, 79.
3.37000, 90.
3.44000, 83.
3.51000, 86.
3.58000, 79.
3.65000, 75.
3.72000, 62.
3.79000, 71.
3.86000, 83.
3.93000, 73.
4.00000, 73.
4.07000, 59.
4.14000, 59.
4.21000, 58.
4.28000, 55.
4.35000, 56.
4.42000, 62.
4.49000, 61.
4.56000, 62.
4.63000, 64.
4.70000, 69.
4.77000, 62.
4.84000, 64.
4.91000, 47.
4.98000, 47.
5.05000, 42.
5.12000, 36.
5.19000, 56.
5.26000, 52.
5.33000, 47.
5.40000, 36.
5.47000, 50.
5.54000, 36.
5.61000, 47.
5.68000, 49.
5.75000, 46.
5.82000, 34.
5.89000, 41.
5.96000, 41.
6.03000, 29.
6.10000, 39.
6.17000, 42.
6.24000, 100.
6.31000, 579.
6.38000, 1776.
6.45000, 1300.
6.52000, 257.
6.59000, 56.
6.66000, 37.
6.73000, 41.
6.80000, 92.
6.87000, 336.
6.94000, 521.
7.01000, 368.
7.08000, 271.
7.15000, 102.
7.22000, 27.
7.29000, 23.
7.36000, 31.
7.43000, 19.
7.50000, 37.
7.57000, 43.
7.64000, 66.
7.71000, 64.
7.78000, 24.
7.85000, 22.
7.92000, 23.
7.99000, 18.
8.06000, 16.
8.13000, 22.
8.20000, 19.
8.27000, 20.
8.34000, 13.
8.41000, 22.
8.48000, 11.
8.55000, 20.
8.62000, 25.
8.69000, 17.
8.76000, 16.
8.83000, 11.
8.90000, 16.
8.97000, 25.
9.04000, 20.
9.11000, 17.
9.18000, 17.
9.25000, 19.
9.32000, 16.
9.39000, 18.
9.46000, 13.
9.53000, 18.
9.60000, 14.
9.67000, 14.
9.74000, 18.
9.81000, 16.
9.88000, 15.
9.95000, 14.
10.02000, 16.
10.09000, 12.
10.16000, 13.
10.23000, 17.
10.30000, 11.
10.37000, 13.
10.44000, 15.
10.51000, 13.
10.58000, 13.
10.65000, 13.
10.72000, 13.
10.79000, 11.
10.86000, 11.
10.93000, 8.
11.00000, 17.
11.07000, 13.
11.14000, 12.
11.21000, 11.
11.28000, 10.
11.35000, 12.
11.42000, 9.
11.49000, 9.
11.56000, 13.
11.63000, 11.
11.70000, 14.
11.77000, 10.
11.84000, 7.
11.91000, 11.
11.98000, 13.
12.05000, 10.
12.12000, 9.
12.19000, 6.
12.26000, 6.
12.33000, 8.
12.40000, 10.
12.47000, 6.
12.54000, 10.
12.61000, 6.
12.68000, 11.
12.75000, 7.
12.82000, 8.
12.89000, 7.
12.96000, 7.
13.03000, 7.
13.10000, 9.
13.17000, 8.
13.24000, 8.
13.31000, 8.
13.38000, 6.
13.45000, 5.
13.52000, 5.
13.59000, 8.
13.66000, 9.
13.73000, 8.
13.80000, 6.
13.87000, 6.
13.94000, 5.
14.01000, 8.
14.08000, 8.
14.15000, 7.
14.22000, 5.
14.29000, 6.
14.36000, 5.
14.43000, 6.
14.50000, 6.
14.57000, 7.
14.64000, 6.
14.71000, 5.
14.78000, 3.
14.85000, 7.
14.92000, 7.
14.99000, 5.
15.06000, 2.
15.13000, 5.
15.20000, 7.
15.27000, 5.
15.34000, 7.
15.41000, 7.
15.48000, 3.
15.55000, 5.
15.62000, 2.
15.69000, 5.
15.76000, 5.
15.83000, 3.
15.90000, 4.
15.97000, 3.
16.04000, 1.
16.11000, 2.
16.18000, 3.
16.25000, 2.
16.32000, 4.
16.39000, 3.
16.46000, 3.
16.53000, 2.
16.60000, 3.
16.67000, 2.
16.74000, 5.
16.81000, 1.
16.88000, 1.
16.95000, 1.
17.02000, 2.
17.09000, 4.
17.16000, 0.
17.23000, 2.
17.30000, 1.
17.37000, 0.
17.44000, 1.
17.51000, 0.
17.58000, 2.
17.65000, 2.
17.72000, 3.
17.79000, 3.
17.86000, 1.
17.93000, 3.
18.00000, 1.
18.07000, 1.
18.14000, 0.
18.21000, 3.
18.28000, 1.
18.35000, 2.
18.42000, 2.
18.49000, 2.
18.56000, 0.
18.63000, 2.
18.70000, 0.
18.77000, 0.
18.84000, 0.
18.91000, 0.
18.98000, 0.
19.05000, 0.
19.12000, 0.
19.19000, 1.
19.26000, 0.
19.33000, 1.
19.40000, 1.
19.47000, 0.
19.54000, 0.
19.61000, 0.
19.68000, 0.
19.75000, 0.
19.82000, 0.
19.89000, 0.
19.96000, 0.
20.03000, 0.
20.10000, 0.
20.17000, 0.
20.24000, 0.
20.27000, 0.
#ENDOFDATA   :