File: data/colloidalCrystals/nanoparticles/vsm/postSynthesis/rawdata/sub_and_rescale/dd144_dry_emuperg.xy
#Extracted data using VSM extraction tool v1.1
#Loaded parameter file: extractVSM.dat
#Desired unit of B: T
#Desired unit of M: memu
#Reading column for B: Applied Field
#Reading column for M: Raw Signal Mx
#Estimate noise level: 5e-3 memu
#Loading data from file: dd144_dry-Hys-00.VHD
#Save data to file: dd144_dry.xye
#Extraction performed at: Wed Oct 12 13:39:32 2016
#Unit of B in data: Oe
#Changing unit by multiplying with factor: 0.0001
#Unit of M in data: memu
#Applied image correction factors to M by linear interpolation of following values
#14998.0	1.0
#15247.0	1.000156
#15497.0	1.000302
#15747.0	1.000527
#15997.0	1.000751
#16247.0	1.001191
#16497.0	1.001494
#16746.0	1.001865
#16996.0	1.002237
#17247.0	1.002688
#17496.0	1.003286
#17746.0	1.003738
#17996.0	1.004259
#18245.0	1.005007
#18495.0	1.005686
#18745.0	1.006367
#18995.0	1.007118

#Substracted file: dd144_dry.xye
#Using Slope: -1.257
#Rescaled file: dd144_dry_BGLinSub.xy
#Rescale Factor: 0.74
#Sigma Scalefactor: 0.0
#B / T	M_scaled / emug-1	sM_scaled / emug-1	M_prescaling / memu	sM_prescaling / memu	M_raw / memu	sM_raw / memu
-0.0007	-0.295591	-0.00675676	-0.2187374	0.005	-0.2178575	0.005
0.001	0.422736	0.00675676	0.3128248	0.005	0.3115678	0.005
0.0031	1.19231	0.00675676	0.8823065	0.005	0.8784098	0.005
0.0051	1.93551	0.00675676	1.43228	0.005	1.425867	0.005
0.01	3.6555	0.00675676	2.705073	0.005	2.692503	0.005
0.0151	5.21811	0.00675676	3.8614	0.005	3.842422	0.005
0.02	6.6064	0.00675676	4.888739	0.005	4.863599	0.005
0.025	7.84873	0.00675676	5.808058	0.005	5.776633	0.005
0.03	8.96483	0.00675676	6.633972	0.005	6.596262	0.005
0.035	9.96991	0.00675676	7.377731	0.005	7.333736	0.005
0.04	10.8843	0.00675676	8.054384	0.005	8.004104	0.005
0.0451	11.7227	0.00675676	8.6748	0.005	8.618108	0.005
0.05	12.488	0.00675676	9.241086	0.005	9.178236	0.005
0.055	13.1935	0.00675676	9.763224	0.005	9.694089	0.005
0.06	13.8501	0.00675676	10.24906	0.005	10.17364	0.005
0.065	14.4565	0.00675676	10.6978	0.005	10.61613	0.005
0.07	15.0313	0.00675676	11.12319	0.005	11.0352	0.005
0.075	15.564	0.00675676	11.5174	0.005	11.42309	0.005
0.08	16.0543	0.00675676	11.88021	0.005	11.77965	0.005
0.085	16.5373	0.00675676	12.2376	0.005	12.13076	0.005
0.09	16.9875	0.00675676	12.57077	0.005	12.45764	0.005
0.095	17.4084	0.00675676	12.8822	0.005	12.76278	0.005
0.1	17.8078	0.00675676	13.17778	0.005	13.05208	0.005
0.2	23.1738	0.00675676	17.14862	0.005	16.89722	0.005
0.3	26.2057	0.00675676	19.39225	0.005	19.01515	0.005
0.4001	28.3036	0.00675676	20.9447	0.005	20.44173	0.005
0.5	29.9048	0.00675676	22.12956	0.005	21.50106	0.005
0.6001	31.2022	0.00675676	23.0896	0.005	22.33531	0.005
0.7	32.2929	0.00675676	23.89672	0.005	23.01682	0.005
0.8002	33.2227	0.00675676	24.5848	0.005	23.57895	0.005
0.9001	34.0534	0.00675676	25.1995	0.005	24.06806	0.005
1.0002	34.7899	0.00675676	25.7445	0.005	24.48729	0.005
1.2001	36.0671	0.00675676	26.6896	0.005	25.18111	0.005
1.4001	37.1389	0.00675676	27.4828	0.005	25.72287	0.005
1.6001	38.0477	0.00675676	28.1553	0.005	26.12419	0.005
1.8001	38.878	0.00675676	28.7698	0.005	26.39422	0.005
1.8006	38.8856	0.00675676	28.7753	0.005	26.39877	0.005
1.6007	38.0752	0.00675676	28.1757	0.005	26.14351	0.005
1.4005	37.161	0.00675676	27.4991	0.005	25.73869	0.005
1.2004	36.0889	0.00675676	26.7058	0.005	25.19691	0.005
1.0004	34.8273	0.00675676	25.7722	0.005	24.51469	0.005
0.9003	34.0917	0.00675676	25.2278	0.005	24.09615	0.005
0.8002	33.2697	0.00675676	24.6196	0.005	23.61373	0.005
0.7002	32.3331	0.00675676	23.9265	0.005	23.04632	0.005
0.6002	31.2589	0.00675676	23.1316	0.005	22.3771	0.005
0.5002	29.9739	0.00675676	22.1807	0.005	21.55196	0.005
0.4002	28.38161	0.00675676	21.0024	0.005	20.49934	0.005
0.3002	26.2962	0.00675676	19.4592	0.005	19.08187	0.005
0.2002	23.2562	0.00675676	17.2096	0.005	16.95796	0.005
0.1001	17.8958	0.00675676	13.2429	0.005	13.11705	0.005
0.095	17.4852	0.00675676	12.9391	0.005	12.81965	0.005
0.09	17.0635	0.00675676	12.62697	0.005	12.51384	0.005
0.085	16.6194	0.00675676	12.2983	0.005	12.1915	0.005
0.08	16.1464	0.00675676	11.94832	0.005	11.84776	0.005
0.075	15.642	0.00675676	11.5751	0.005	11.48084	0.005
0.07	15.113	0.00675676	11.18365	0.005	11.09566	0.005
0.065	14.5399	0.00675676	10.7595	0.005	10.67784	0.005
0.0601	13.9361	0.00675676	10.3127	0.005	10.23718	0.005
0.0551	13.2795	0.00675676	9.82682	0.005	9.757556	0.005
0.0501	12.5721	0.00675676	9.30336	0.005	9.240384	0.005
0.0451	11.8125	0.00675676	8.74125	0.005	8.684556	0.005
0.0401	10.9827	0.00675676	8.12718	0.005	8.076772	0.005
0.0351	10.0694	0.00675676	7.45133	0.005	7.407206	0.005
0.0301	9.06299	0.00675676	6.70661	0.005	6.668777	0.005
0.0251	7.95512	0.00675676	5.88679	0.005	5.855238	0.005
0.0201	6.70728	0.00675676	4.96339	0.005	4.938124	0.005
0.0151	5.30998	0.00675676	3.92939	0.005	3.910405	0.005
0.0101	3.73758	0.00675676	2.76581	0.005	2.753116	0.005
0.0051	1.98014	0.00675676	1.4653	0.005	1.458891	0.005
0.0031	1.22944	0.00675676	0.9097821	0.005	0.9058854	0.005
0.0011	0.459271	0.00675676	0.3398605	0.005	0.3384778	0.005
-0.0007	-0.304384	-0.00675676	-0.2252445	0.005	-0.2243646	0.005
-0.0027	-1.0679	-0.00675676	-0.7902485	0.005	-0.7868546	0.005
-0.0047	-1.82099	-0.00675676	-1.34753	0.005	-1.341622	0.005
-0.0097	-3.58744	-0.00675676	-2.6547	0.005	-2.642512	0.005
-0.0147	-5.17787	-0.00675676	-3.83162	0.005	-3.813147	0.005
-0.0197	-6.58609	-0.00675676	-4.8737	0.005	-4.848941	0.005
-0.0247	-7.84436	-0.00675676	-5.80483	0.005	-5.77378	0.005
-0.0297	-8.96694	-0.00675676	-6.63554	0.005	-6.598206	0.005
-0.0347	-9.98183	-0.00675676	-7.38656	0.005	-7.342938	0.005
-0.0397	-10.899	-0.00675676	-8.06523	0.005	-8.015331	0.005
-0.0447	-11.7435	-0.00675676	-8.6902	0.005	-8.634013	0.005
-0.0497	-12.5107	-0.00675676	-9.2579	0.005	-9.195425	0.005
-0.0547	-13.2209	-0.00675676	-9.78349	0.005	-9.71473	0.005
-0.0597	-13.8776	-0.00675676	-10.2694	0.005	-10.19436	0.005
-0.0648	-14.4945	-0.00675676	-10.7259	0.005	-10.64447	0.005
-0.0698	-15.062	-0.00675676	-11.1459	0.005	-11.05812	0.005
-0.0748	-15.5995	-0.00675676	-11.5436	0.005	-11.44962	0.005
-0.0798	-16.1024	-0.00675676	-11.9158	0.005	-11.81547	0.005
-0.0848	-16.5773	-0.00675676	-12.2672	0.005	-12.16063	0.005
-0.0898	-17.0271	-0.00675676	-12.6	0.005	-12.48715	0.005
-0.0948	-17.4517	-0.00675676	-12.9142	0.005	-12.79506	0.005
-0.0998	-17.8559	-0.00675676	-13.2133	0.005	-13.08789	0.005
-0.1996	-23.2377	-0.00675676	-17.1959	0.005	-16.94498	0.005
-0.2997	-26.2688	-0.00675676	-19.4389	0.005	-19.0622	0.005
-0.3997	-28.357	-0.00675676	-20.9842	0.005	-20.48176	0.005
-0.4998	-29.9524	-0.00675676	-22.1648	0.005	-21.53651	0.005
-0.5998	-31.2401	-0.00675676	-23.1177	0.005	-22.36375	0.005
-0.6998	-32.3338	-0.00675676	-23.927	0.005	-23.04737	0.005
-0.7997	-33.2698	-0.00675676	-24.6196	0.005	-23.61441	0.005
-0.8998	-34.0913	-0.00675676	-25.2275	0.005	-24.0965	0.005
-0.9998	-34.8277	-0.00675676	-25.7725	0.005	-24.51573	0.005
-1.1998	-36.0993	-0.00675676	-26.7135	0.005	-25.20532	0.005
-1.3998	-37.1607	-0.00675676	-27.4989	0.005	-25.73936	0.005
-1.5997	-38.0729	-0.00675676	-28.174	0.005	-26.14351	0.005
-1.7998	-38.9101	-0.00675676	-28.7935	0.005	-26.41845	0.005
-1.8002	-38.9078	-0.00675676	-28.7918	0.005	-26.41597	0.005
-1.6001	-38.08	-0.00675676	-28.1792	0.005	-26.14807	0.005
-1.4001	-37.185	-0.00675676	-27.5169	0.005	-25.75694	0.005
-1.2001	-36.1245	-0.00675676	-26.7321	0.005	-25.22357	0.005
-1.0	-34.8541	-0.00675676	-25.79206	0.005	-24.53506	0.005
-0.9	-34.123	-0.00675676	-25.25099	0.005	-24.11969	0.005
-0.7999	-33.301	-0.00675676	-24.6427	0.005	-23.63726	0.005
-0.7	-32.3688	-0.00675676	-23.95288	0.005	-23.07298	0.005
-0.5999	-31.3015	-0.00675676	-23.1631	0.005	-22.40905	0.005
-0.4999	-30.0166	-0.00675676	-22.2123	0.005	-21.58392	0.005
-0.3998	-28.4288	-0.00675676	-21.0373	0.005	-20.53479	0.005
-0.2999	-26.3413	-0.00675676	-19.4925	0.005	-19.11557	0.005
-0.1998	-23.3035	-0.00675676	-17.2446	0.005	-16.99342	0.005
-0.0999	-17.9239	-0.00675676	-13.2637	0.005	-13.13814	0.005
-0.0948	-17.5096	-0.00675676	-12.9571	0.005	-12.83791	0.005
-0.0898	-17.0854	-0.00675676	-12.6432	0.005	-12.53033	0.005
-0.085	-16.655	-0.00675676	-12.3247	0.005	-12.21783	0.005
-0.0798	-16.156	-0.00675676	-11.9554	0.005	-11.85513	0.005
-0.075	-15.6762	-0.00675676	-11.6004	0.005	-11.50613	0.005
-0.0698	-15.1146	-0.00675676	-11.1848	0.005	-11.09705	0.005
-0.065	-14.5679	-0.00675676	-10.7802	0.005	-10.69854	0.005
-0.06	-13.9578	-0.00675676	-10.32877	0.005	-10.25335	0.005
-0.055	-13.3011	-0.00675676	-9.842844	0.005	-9.773709	0.005
-0.0499	-12.5893	-0.00675676	-9.31609	0.005	-9.253367	0.005
-0.045	-11.8261	-0.00675676	-8.751312	0.005	-8.694747	0.005
-0.04	-10.9834	-0.00675676	-8.127747	0.005	-8.077467	0.005
-0.0349	-10.0662	-0.00675676	-7.44897	0.005	-7.405097	0.005
-0.0299	-9.05361	-0.00675676	-6.69967	0.005	-6.662085	0.005
-0.0249	-7.93058	-0.00675676	-5.86863	0.005	-5.837333	0.005
-0.0199	-6.6799	-0.00675676	-4.94313	0.005	-4.918112	0.005
-0.0149	-5.26836	-0.00675676	-3.89859	0.005	-3.87986	0.005
-0.0099	-3.68552	-0.00675676	-2.72729	0.005	-2.714842	0.005
-0.0049	-1.90768	-0.00675676	-1.41169	0.005	-1.405526	0.005
-0.0028	-1.07804	-0.00675676	-0.797747	0.005	-0.7942274	0.005
-0.0007	-0.311976	-0.00675676	-0.2308624	0.005	-0.2299825	0.005
0.001	0.418296	0.00675676	0.3095388	0.005	0.3082818	0.005
0.003	1.1913	0.00675676	0.8815634	0.005	0.8777924	0.005
0.0051	1.98014	0.00675676	1.4653	0.005	1.458891	0.005
0.0101	3.73853	0.00675676	2.76651	0.005	2.753818	0.005
0.0151	5.32565	0.00675676	3.94098	0.005	3.921997	0.005
0.02	6.72419	0.00675676	4.975903	0.005	4.950763	0.005
0.0251	7.97267	0.00675676	5.89978	0.005	5.868228	0.005
0.0301	9.09048	0.00675676	6.72696	0.005	6.689123	0.005
0.0351	10.1016	0.00675676	7.47518	0.005	7.431063	0.005
0.04	11.0153	0.00675676	8.151298	0.005	8.101018	0.005
0.0451	11.8543	0.00675676	8.77215	0.005	8.715459	0.005
0.0501	12.6186	0.00675676	9.33778	0.005	9.274809	0.005
0.055	13.3239	0.00675676	9.859703	0.005	9.790568	0.005
0.06	13.9806	0.00675676	10.34565	0.005	10.27023	0.005
0.065	14.5907	0.00675676	10.7971	0.005	10.71542	0.005
0.07	15.1581	0.00675676	11.21703	0.005	11.12904	0.005
0.075	15.6952	0.00675676	11.6145	0.005	11.52019	0.005
0.08	16.1934	0.00675676	11.98309	0.005	11.88253	0.005
0.085	16.6673	0.00675676	12.3338	0.005	12.22697	0.005
0.09	17.1128	0.00675676	12.66348	0.005	12.55035	0.005
0.095	17.5365	0.00675676	12.977	0.005	12.85756	0.005
0.1	17.9407	0.00675676	13.27609	0.005	13.15039	0.005
0.2001	23.3049	0.00675676	17.2456	0.005	16.99412	0.005
0.3	26.3263	0.00675676	19.48145	0.005	19.10435	0.005
0.4001	28.4075	0.00675676	21.0216	0.005	20.51864	0.005
0.5	29.9959	0.00675676	22.19697	0.005	21.56847	0.005
0.6001	31.3009	0.00675676	23.1627	0.005	22.40835	0.005
0.7	32.3821	0.00675676	23.96272	0.005	23.08282	0.005
0.8002	33.3124	0.00675676	24.6512	0.005	23.64533	0.005
0.9001	34.1331	0.00675676	25.2585	0.005	24.12705	0.005
1.0002	34.8753	0.00675676	25.8078	0.005	24.5505	0.005
1.2001	36.1425	0.00675676	26.7455	0.005	25.23693	0.005
1.4001	37.1992	0.00675676	27.5274	0.005	25.76747	0.005
1.6001	38.1147	0.00675676	28.2049	0.005	26.1737	0.005
1.8001	38.9514	0.00675676	28.824	0.005	26.44827	0.005
1.9001	39.3261	0.00675676	29.1013	0.005	26.52412	0.005