File: data/colloidalCrystals/nanoparticles/vsm/postSynthesis/rawdata/sub_and_rescale/dd144_dry_BGLinSub_rescale.xy
#Extracted data using VSM extraction tool v1.1
#Loaded parameter file: extractVSM.dat
#Desired unit of B: T
#Desired unit of M: memu
#Reading column for B: Applied Field
#Reading column for M: Raw Signal Mx
#Estimate noise level: 5e-3 memu
#Loading data from file: dd144_dry-Hys-00.VHD
#Save data to file: dd144_dry.xye
#Extraction performed at: Wed Oct 12 13:39:32 2016
#Unit of B in data: Oe
#Changing unit by multiplying with factor: 0.0001
#Unit of M in data: memu
#Applied image correction factors to M by linear interpolation of following values
#14998.0	1.0
#15247.0	1.000156
#15497.0	1.000302
#15747.0	1.000527
#15997.0	1.000751
#16247.0	1.001191
#16497.0	1.001494
#16746.0	1.001865
#16996.0	1.002237
#17247.0	1.002688
#17496.0	1.003286
#17746.0	1.003738
#17996.0	1.004259
#18245.0	1.005007
#18495.0	1.005686
#18745.0	1.006367
#18995.0	1.007118

#Substracted file: dd144_dry.xye
#Using Slope: -1.257
#Rescaled file: dd144_dry_BGLinSub.xy
#Rescale Factor: 0.139623
#Sigma Scalefactor: 0.0
#B / T	M_scaled / kAm-1	sM_scaled / kAm-1	M_prescaling / memu	sM_prescaling / memu	M_raw / memu	sM_raw / memu
-0.0007	-1.56663	-0.0358108	-0.2187374	0.005	-0.2178575	0.005
0.001	2.2405	0.0358108	0.3128248	0.005	0.3115678	0.005
0.0031	6.31922	0.0358108	0.8823065	0.005	0.8784098	0.005
0.0051	10.2582	0.0358108	1.43228	0.005	1.425867	0.005
0.01	19.3742	0.0358108	2.705073	0.005	2.692503	0.005
0.0151	27.656	0.0358108	3.8614	0.005	3.842422	0.005
0.02	35.0139	0.0358108	4.888739	0.005	4.863599	0.005
0.025	41.5983	0.0358108	5.808058	0.005	5.776633	0.005
0.03	47.5136	0.0358108	6.633972	0.005	6.596262	0.005
0.035	52.8405	0.0358108	7.377731	0.005	7.333736	0.005
0.04	57.6868	0.0358108	8.054384	0.005	8.004104	0.005
0.0451	62.1303	0.0358108	8.6748	0.005	8.618108	0.005
0.05	66.1862	0.0358108	9.241086	0.005	9.178236	0.005
0.055	69.9258	0.0358108	9.763224	0.005	9.694089	0.005
0.06	73.4054	0.0358108	10.24906	0.005	10.17364	0.005
0.065	76.6196	0.0358108	10.6978	0.005	10.61613	0.005
0.07	79.6661	0.0358108	11.12319	0.005	11.0352	0.005
0.075	82.4892	0.0358108	11.5174	0.005	11.42309	0.005
0.08	85.088	0.0358108	11.88021	0.005	11.77965	0.005
0.085	87.6477	0.0358108	12.2376	0.005	12.13076	0.005
0.09	90.0339	0.0358108	12.57077	0.005	12.45764	0.005
0.095	92.2644	0.0358108	12.8822	0.005	12.76278	0.005
0.1	94.3814	0.0358108	13.17778	0.005	13.05208	0.005
0.2	122.821	0.0358108	17.14862	0.005	16.89722	0.005
0.3	138.89	0.0358108	19.39225	0.005	19.01515	0.005
0.4001	150.009	0.0358108	20.9447	0.005	20.44173	0.005
0.5	158.495	0.0358108	22.12956	0.005	21.50106	0.005
0.6001	165.372	0.0358108	23.0896	0.005	22.33531	0.005
0.7	171.152	0.0358108	23.89672	0.005	23.01682	0.005
0.8002	176.08	0.0358108	24.5848	0.005	23.57895	0.005
0.9001	180.483	0.0358108	25.1995	0.005	24.06806	0.005
1.0002	184.387	0.0358108	25.7445	0.005	24.48729	0.005
1.2001	191.155	0.0358108	26.6896	0.005	25.18111	0.005
1.4001	196.836	0.0358108	27.4828	0.005	25.72287	0.005
1.6001	201.653	0.0358108	28.1553	0.005	26.12419	0.005
1.8001	206.054	0.0358108	28.7698	0.005	26.39422	0.005
1.8006	206.094	0.0358108	28.7753	0.005	26.39877	0.005
1.6007	201.799	0.0358108	28.1757	0.005	26.14351	0.005
1.4005	196.953	0.0358108	27.4991	0.005	25.73869	0.005
1.2004	191.271	0.0358108	26.7058	0.005	25.19691	0.005
1.0004	184.585	0.0358108	25.7722	0.005	24.51469	0.005
0.9003	180.686	0.0358108	25.2278	0.005	24.09615	0.005
0.8002	176.329	0.0358108	24.6196	0.005	23.61373	0.005
0.7002	171.365	0.0358108	23.9265	0.005	23.04632	0.005
0.6002	165.672	0.0358108	23.1316	0.005	22.3771	0.005
0.5002	158.862	0.0358108	22.1807	0.005	21.55196	0.005
0.4002	150.423	0.0358108	21.0024	0.005	20.49934	0.005
0.3002	139.37	0.0358108	19.4592	0.005	19.08187	0.005
0.2002	123.258	0.0358108	17.2096	0.005	16.95796	0.005
0.1001	94.8476	0.0358108	13.2429	0.005	13.11705	0.005
0.095	92.6717	0.0358108	12.9391	0.005	12.81965	0.005
0.09	90.4364	0.0358108	12.62697	0.005	12.51384	0.005
0.085	88.0827	0.0358108	12.2983	0.005	12.1915	0.005
0.08	85.5758	0.0358108	11.94832	0.005	11.84776	0.005
0.075	82.9029	0.0358108	11.5751	0.005	11.48084	0.005
0.07	80.0991	0.0358108	11.18365	0.005	11.09566	0.005
0.065	77.0616	0.0358108	10.7595	0.005	10.67784	0.005
0.0601	73.8614	0.0358108	10.3127	0.005	10.23718	0.005
0.0551	70.3813	0.0358108	9.82682	0.005	9.757556	0.005
0.0501	66.6322	0.0358108	9.30336	0.005	9.240384	0.005
0.0451	62.6062	0.0358108	8.74125	0.005	8.684556	0.005
0.0401	58.2082	0.0358108	8.12718	0.005	8.076772	0.005
0.0351	53.3676	0.0358108	7.45133	0.005	7.407206	0.005
0.0301	48.0338	0.0358108	6.70661	0.005	6.668777	0.005
0.0251	42.1621	0.0358108	5.88679	0.005	5.855238	0.005
0.0201	35.5486	0.0358108	4.96339	0.005	4.938124	0.005
0.0151	28.1429	0.0358108	3.92939	0.005	3.910405	0.005
0.0101	19.8092	0.0358108	2.76581	0.005	2.753116	0.005
0.0051	10.4947	0.0358108	1.4653	0.005	1.458891	0.005
0.0031	6.51601	0.0358108	0.9097821	0.005	0.9058854	0.005
0.0011	2.43414	0.0358108	0.3398605	0.005	0.3384778	0.005
-0.0007	-1.61324	-0.0358108	-0.2252445	0.005	-0.2243646	0.005
-0.0027	-5.65989	-0.0358108	-0.7902485	0.005	-0.7868546	0.005
-0.0047	-9.65123	-0.0358108	-1.34753	0.005	-1.341622	0.005
-0.0097	-19.0134	-0.0358108	-2.6547	0.005	-2.642512	0.005
-0.0147	-27.4427	-0.0358108	-3.83162	0.005	-3.813147	0.005
-0.0197	-34.9063	-0.0358108	-4.8737	0.005	-4.848941	0.005
-0.0247	-41.5751	-0.0358108	-5.80483	0.005	-5.77378	0.005
-0.0297	-47.5248	-0.0358108	-6.63554	0.005	-6.598206	0.005
-0.0347	-52.9037	-0.0358108	-7.38656	0.005	-7.342938	0.005
-0.0397	-57.7645	-0.0358108	-8.06523	0.005	-8.015331	0.005
-0.0447	-62.2406	-0.0358108	-8.6902	0.005	-8.634013	0.005
-0.0497	-66.3066	-0.0358108	-9.2579	0.005	-9.195425	0.005
-0.0547	-70.0709	-0.0358108	-9.78349	0.005	-9.71473	0.005
-0.0597	-73.5511	-0.0358108	-10.2694	0.005	-10.19436	0.005
-0.0648	-76.8208	-0.0358108	-10.7259	0.005	-10.64447	0.005
-0.0698	-79.8284	-0.0358108	-11.1459	0.005	-11.05812	0.005
-0.0748	-82.6774	-0.0358108	-11.5436	0.005	-11.44962	0.005
-0.0798	-85.3427	-0.0358108	-11.9158	0.005	-11.81547	0.005
-0.0848	-87.8598	-0.0358108	-12.2672	0.005	-12.16063	0.005
-0.0898	-90.2434	-0.0358108	-12.6	0.005	-12.48715	0.005
-0.0948	-92.4938	-0.0358108	-12.9142	0.005	-12.79506	0.005
-0.0998	-94.6361	-0.0358108	-13.2133	0.005	-13.08789	0.005
-0.1996	-123.16	-0.0358108	-17.1959	0.005	-16.94498	0.005
-0.2997	-139.225	-0.0358108	-19.4389	0.005	-19.0622	0.005
-0.3997	-150.292	-0.0358108	-20.9842	0.005	-20.48176	0.005
-0.4998	-158.748	-0.0358108	-22.1648	0.005	-21.53651	0.005
-0.5998	-165.573	-0.0358108	-23.1177	0.005	-22.36375	0.005
-0.6998	-171.369	-0.0358108	-23.927	0.005	-23.04737	0.005
-0.7997	-176.33	-0.0358108	-24.6196	0.005	-23.61441	0.005
-0.8998	-180.684	-0.0358108	-25.2275	0.005	-24.0965	0.005
-0.9998	-184.587	-0.0358108	-25.7725	0.005	-24.51573	0.005
-1.1998	-191.326	-0.0358108	-26.7135	0.005	-25.20532	0.005
-1.3998	-196.952	-0.0358108	-27.4989	0.005	-25.73936	0.005
-1.5997	-201.787	-0.0358108	-28.174	0.005	-26.14351	0.005
-1.7998	-206.224	-0.0358108	-28.7935	0.005	-26.41845	0.005
-1.8002	-206.212	-0.0358108	-28.7918	0.005	-26.41597	0.005
-1.6001	-201.824	-0.0358108	-28.1792	0.005	-26.14807	0.005
-1.4001	-197.08	-0.0358108	-27.5169	0.005	-25.75694	0.005
-1.2001	-191.46	-0.0358108	-26.7321	0.005	-25.22357	0.005
-1.0	-184.727	-0.0358108	-25.79206	0.005	-24.53506	0.005
-0.9	-180.852	-0.0358108	-25.25099	0.005	-24.11969	0.005
-0.7999	-176.495	-0.0358108	-24.6427	0.005	-23.63726	0.005
-0.7	-171.554	-0.0358108	-23.95288	0.005	-23.07298	0.005
-0.5999	-165.898	-0.0358108	-23.1631	0.005	-22.40905	0.005
-0.4999	-159.088	-0.0358108	-22.2123	0.005	-21.58392	0.005
-0.3998	-150.673	-0.0358108	-21.0373	0.005	-20.53479	0.005
-0.2999	-139.609	-0.0358108	-19.4925	0.005	-19.11557	0.005
-0.1998	-123.508	-0.0358108	-17.2446	0.005	-16.99342	0.005
-0.0999	-94.9969	-0.0358108	-13.2637	0.005	-13.13814	0.005
-0.0948	-92.8007	-0.0358108	-12.9571	0.005	-12.83791	0.005
-0.0898	-90.5527	-0.0358108	-12.6432	0.005	-12.53033	0.005
-0.085	-88.2713	-0.0358108	-12.3247	0.005	-12.21783	0.005
-0.0798	-85.6268	-0.0358108	-11.9554	0.005	-11.85513	0.005
-0.075	-83.084	-0.0358108	-11.6004	0.005	-11.50613	0.005
-0.0698	-80.1073	-0.0358108	-11.1848	0.005	-11.09705	0.005
-0.065	-77.2099	-0.0358108	-10.7802	0.005	-10.69854	0.005
-0.06	-73.9763	-0.0358108	-10.32877	0.005	-10.25335	0.005
-0.055	-70.496	-0.0358108	-9.842844	0.005	-9.773709	0.005
-0.0499	-66.7234	-0.0358108	-9.31609	0.005	-9.253367	0.005
-0.045	-62.6783	-0.0358108	-8.751312	0.005	-8.694747	0.005
-0.04	-58.2122	-0.0358108	-8.127747	0.005	-8.077467	0.005
-0.0349	-53.3507	-0.0358108	-7.44897	0.005	-7.405097	0.005
-0.0299	-47.9841	-0.0358108	-6.69967	0.005	-6.662085	0.005
-0.0249	-42.0321	-0.0358108	-5.86863	0.005	-5.837333	0.005
-0.0199	-35.4035	-0.0358108	-4.94313	0.005	-4.918112	0.005
-0.0149	-27.9223	-0.0358108	-3.89859	0.005	-3.87986	0.005
-0.0099	-19.5333	-0.0358108	-2.72729	0.005	-2.714842	0.005
-0.0049	-10.1107	-0.0358108	-1.41169	0.005	-1.405526	0.005
-0.0028	-5.71359	-0.0358108	-0.797747	0.005	-0.7942274	0.005
-0.0007	-1.65347	-0.0358108	-0.2308624	0.005	-0.2299825	0.005
0.001	2.21697	0.0358108	0.3095388	0.005	0.3082818	0.005
0.003	6.3139	0.0358108	0.8815634	0.005	0.8777924	0.005
0.0051	10.4947	0.0358108	1.4653	0.005	1.458891	0.005
0.0101	19.8142	0.0358108	2.76651	0.005	2.753818	0.005
0.0151	28.2259	0.0358108	3.94098	0.005	3.921997	0.005
0.02	35.6382	0.0358108	4.975903	0.005	4.950763	0.005
0.0251	42.2552	0.0358108	5.89978	0.005	5.868228	0.005
0.0301	48.1796	0.0358108	6.72696	0.005	6.689123	0.005
0.0351	53.5385	0.0358108	7.47518	0.005	7.431063	0.005
0.04	58.3809	0.0358108	8.151298	0.005	8.101018	0.005
0.0451	62.8276	0.0358108	8.77215	0.005	8.715459	0.005
0.0501	66.8787	0.0358108	9.33778	0.005	9.274809	0.005
0.055	70.6168	0.0358108	9.859703	0.005	9.790568	0.005
0.06	74.0972	0.0358108	10.34565	0.005	10.27023	0.005
0.065	77.3308	0.0358108	10.7971	0.005	10.71542	0.005
0.07	80.3382	0.0358108	11.21703	0.005	11.12904	0.005
0.075	83.1847	0.0358108	11.6145	0.005	11.52019	0.005
0.08	85.8248	0.0358108	11.98309	0.005	11.88253	0.005
0.085	88.3368	0.0358108	12.3338	0.005	12.22697	0.005
0.09	90.6979	0.0358108	12.66348	0.005	12.55035	0.005
0.095	92.9432	0.0358108	12.977	0.005	12.85756	0.005
0.1	95.0855	0.0358108	13.27609	0.005	13.15039	0.005
0.2001	123.516	0.0358108	17.2456	0.005	16.99412	0.005
0.3	139.529	0.0358108	19.48145	0.005	19.10435	0.005
0.4001	150.56	0.0358108	21.0216	0.005	20.51864	0.005
0.5	158.978	0.0358108	22.19697	0.005	21.56847	0.005
0.6001	165.895	0.0358108	23.1627	0.005	22.40835	0.005
0.7	171.625	0.0358108	23.96272	0.005	23.08282	0.005
0.8002	176.556	0.0358108	24.6512	0.005	23.64533	0.005
0.9001	180.905	0.0358108	25.2585	0.005	24.12705	0.005
1.0002	184.839	0.0358108	25.8078	0.005	24.5505	0.005
1.2001	191.555	0.0358108	26.7455	0.005	25.23693	0.005
1.4001	197.156	0.0358108	27.5274	0.005	25.76747	0.005
1.6001	202.008	0.0358108	28.2049	0.005	26.1737	0.005
1.8001	206.442	0.0358108	28.824	0.005	26.44827	0.005
1.9001	208.429	0.0358108	29.1013	0.005	26.52412	0.005