File: data/monolayers/nanoparticles/Ol_CoFe_C/edx/data/DD67_3.txt
#FORMAT      : EMSA/MAS Spectral Data File
#VERSION     : 1.0
#TITLE       : Spectrum 1
#DATE        : 04-DEC-2018
#TIME        : 10:37
#OWNER       :
#NPOINTS     : 2048.
#NCOLUMNS    : 1.
#XUNITS      : keV
#YUNITS      : counts
#DATATYPE    : XY
#XPERCHAN    : 0.0100000
#OFFSET      : -0.200000
#SIGNALTYPE  : EDS
#CHOFFSET    : 20.0000
#LIVETIME    : 100
#REALTIME    : 116.385
#BEAMKV      : 20.0000
#PROBECUR    : 0.000000
#MAGCAM      : 1390.00
#XTILTSTGE   : 0.0
#AZIMANGLE   : 0.0
#ELEVANGLE   : 35.0
#XPOSITION mm: 0.0000
#YPOSITION mm: 0.0000
#ZPOSITION mm: 0.0000
##OXINSTPT   : 5
##OXINSTSTROB: 49.09
##OXINSTELEMS: 6,8,11,26,27
##OXINSTLABEL: 26, 6.404, Fe
##OXINSTLABEL: 26, 7.058, Fe
##OXINSTLABEL: 26, 0.705, Fe
##OXINSTLABEL: 26, 0.628, Fe
##OXINSTLABEL: 8, 0.525, O
##OXINSTLABEL: 27, 6.930, Co
##OXINSTLABEL: 27, 7.650, Co
##OXINSTLABEL: 27, 0.776, Co
##OXINSTLABEL: 27, 0.694, Co
##OXINSTLABEL: 27, 0.678, Co
##OXINSTLABEL: 6, 0.277, C
##OXINSTLABEL: 11, 1.041, Na
#SPECTRUM    : Spectral Data Starts Here
-0.20000, 0.
-0.13000, 0.
-0.06000, 30.
0.01000, 5493.
0.08000, 138.
0.15000, 49.
0.22000, 118.
0.29000, 378.
0.36000, 55.
0.43000, 145.
0.50000, 2340.
0.57000, 806.
0.64000, 426.
0.71000, 1190.
0.78000, 532.
0.85000, 108.
0.92000, 58.
0.99000, 60.
1.06000, 116.
1.13000, 79.
1.20000, 78.
1.27000, 88.
1.34000, 101.
1.41000, 114.
1.48000, 118.
1.55000, 109.
1.62000, 109.
1.69000, 109.
1.76000, 121.
1.83000, 120.
1.90000, 113.
1.97000, 126.
2.04000, 121.
2.11000, 120.
2.18000, 99.
2.25000, 127.
2.32000, 110.
2.39000, 120.
2.46000, 107.
2.53000, 119.
2.60000, 125.
2.67000, 89.
2.74000, 122.
2.81000, 104.
2.88000, 109.
2.95000, 97.
3.02000, 104.
3.09000, 91.
3.16000, 99.
3.23000, 75.
3.30000, 94.
3.37000, 89.
3.44000, 86.
3.51000, 78.
3.58000, 90.
3.65000, 96.
3.72000, 92.
3.79000, 86.
3.86000, 81.
3.93000, 74.
4.00000, 69.
4.07000, 68.
4.14000, 71.
4.21000, 70.
4.28000, 63.
4.35000, 60.
4.42000, 70.
4.49000, 58.
4.56000, 67.
4.63000, 84.
4.70000, 60.
4.77000, 53.
4.84000, 60.
4.91000, 62.
4.98000, 61.
5.05000, 45.
5.12000, 51.
5.19000, 66.
5.26000, 53.
5.33000, 60.
5.40000, 58.
5.47000, 52.
5.54000, 30.
5.61000, 43.
5.68000, 44.
5.75000, 44.
5.82000, 33.
5.89000, 47.
5.96000, 44.
6.03000, 42.
6.10000, 46.
6.17000, 53.
6.24000, 107.
6.31000, 633.
6.38000, 1946.
6.45000, 1399.
6.52000, 298.
6.59000, 55.
6.66000, 37.
6.73000, 43.
6.80000, 100.
6.87000, 503.
6.94000, 767.
7.01000, 476.
7.08000, 307.
7.15000, 102.
7.22000, 34.
7.29000, 31.
7.36000, 29.
7.43000, 26.
7.50000, 45.
7.57000, 76.
7.64000, 111.
7.71000, 78.
7.78000, 27.
7.85000, 23.
7.92000, 25.
7.99000, 22.
8.06000, 25.
8.13000, 30.
8.20000, 19.
8.27000, 21.
8.34000, 25.
8.41000, 21.
8.48000, 20.
8.55000, 24.
8.62000, 28.
8.69000, 25.
8.76000, 13.
8.83000, 21.
8.90000, 15.
8.97000, 28.
9.04000, 16.
9.11000, 20.
9.18000, 22.
9.25000, 19.
9.32000, 16.
9.39000, 13.
9.46000, 19.
9.53000, 16.
9.60000, 16.
9.67000, 18.
9.74000, 17.
9.81000, 16.
9.88000, 16.
9.95000, 20.
10.02000, 23.
10.09000, 15.
10.16000, 13.
10.23000, 16.
10.30000, 13.
10.37000, 25.
10.44000, 18.
10.51000, 16.
10.58000, 13.
10.65000, 10.
10.72000, 17.
10.79000, 18.
10.86000, 13.
10.93000, 13.
11.00000, 17.
11.07000, 19.
11.14000, 15.
11.21000, 14.
11.28000, 12.
11.35000, 13.
11.42000, 15.
11.49000, 16.
11.56000, 11.
11.63000, 15.
11.70000, 12.
11.77000, 13.
11.84000, 12.
11.91000, 11.
11.98000, 13.
12.05000, 11.
12.12000, 12.
12.19000, 10.
12.26000, 9.
12.33000, 13.
12.40000, 13.
12.47000, 10.
12.54000, 11.
12.61000, 11.
12.68000, 6.
12.75000, 11.
12.82000, 12.
12.89000, 9.
12.96000, 9.
13.03000, 5.
13.10000, 7.
13.17000, 10.
13.24000, 10.
13.31000, 6.
13.38000, 7.
13.45000, 9.
13.52000, 9.
13.59000, 9.
13.66000, 6.
13.73000, 6.
13.80000, 5.
13.87000, 11.
13.94000, 6.
14.01000, 6.
14.08000, 10.
14.15000, 7.
14.22000, 6.
14.29000, 7.
14.36000, 8.
14.43000, 6.
14.50000, 6.
14.57000, 6.
14.64000, 2.
14.71000, 5.
14.78000, 6.
14.85000, 6.
14.92000, 4.
14.99000, 4.
15.06000, 6.
15.13000, 6.
15.20000, 5.
15.27000, 5.
15.34000, 7.
15.41000, 6.
15.48000, 7.
15.55000, 8.
15.62000, 4.
15.69000, 6.
15.76000, 2.
15.83000, 5.
15.90000, 9.
15.97000, 3.
16.04000, 3.
16.11000, 3.
16.18000, 5.
16.25000, 4.
16.32000, 5.
16.39000, 6.
16.46000, 6.
16.53000, 4.
16.60000, 1.
16.67000, 0.
16.74000, 3.
16.81000, 1.
16.88000, 7.
16.95000, 3.
17.02000, 3.
17.09000, 3.
17.16000, 1.
17.23000, 7.
17.30000, 1.
17.37000, 3.
17.44000, 3.
17.51000, 0.
17.58000, 3.
17.65000, 2.
17.72000, 1.
17.79000, 4.
17.86000, 2.
17.93000, 4.
18.00000, 0.
18.07000, 2.
18.14000, 0.
18.21000, 1.
18.28000, 1.
18.35000, 0.
18.42000, 1.
18.49000, 2.
18.56000, 0.
18.63000, 2.
18.70000, 2.
18.77000, 0.
18.84000, 0.
18.91000, 0.
18.98000, 0.
19.05000, 0.
19.12000, 0.
19.19000, 1.
19.26000, 1.
19.33000, 1.
19.40000, 0.
19.47000, 0.
19.54000, 0.
19.61000, 0.
19.68000, 0.
19.75000, 0.
19.82000, 0.
19.89000, 0.
19.96000, 0.
20.03000, 0.
20.10000, 0.
20.17000, 0.
20.24000, 0.
20.27000, 0.
#ENDOFDATA   :