File: data/monolayers/nanoparticles/Ol_CoFe_C/edx/data/DD67_2.txt
#FORMAT      : EMSA/MAS Spectral Data File
#VERSION     : 1.0
#TITLE       : Spectrum 1
#DATE        : 04-DEC-2018
#TIME        : 10:34
#OWNER       :
#NPOINTS     : 2048.
#NCOLUMNS    : 1.
#XUNITS      : keV
#YUNITS      : counts
#DATATYPE    : XY
#XPERCHAN    : 0.0100000
#OFFSET      : -0.200000
#SIGNALTYPE  : EDS
#CHOFFSET    : 20.0000
#LIVETIME    : 100
#REALTIME    : 114.975
#BEAMKV      : 20.0000
#PROBECUR    : 0.000000
#MAGCAM      : 1390.00
#XTILTSTGE   : 0.0
#AZIMANGLE   : 0.0
#ELEVANGLE   : 35.0
#XPOSITION mm: 0.0000
#YPOSITION mm: 0.0000
#ZPOSITION mm: 0.0000
##OXINSTPT   : 5
##OXINSTSTROB: 49.33
##OXINSTELEMS: 5,6,8,11,14,26,27
##OXINSTLABEL: 26, 6.404, Fe
##OXINSTLABEL: 26, 7.058, Fe
##OXINSTLABEL: 26, 0.705, Fe
##OXINSTLABEL: 26, 0.628, Fe
##OXINSTLABEL: 8, 0.525, O
##OXINSTLABEL: 27, 6.930, Co
##OXINSTLABEL: 27, 7.650, Co
##OXINSTLABEL: 27, 0.776, Co
##OXINSTLABEL: 27, 0.694, Co
##OXINSTLABEL: 27, 0.678, Co
##OXINSTLABEL: 11, 1.041, Na
##OXINSTLABEL: 6, 0.277, C
##OXINSTLABEL: 14, 1.740, Si
##OXINSTLABEL: 5, 0.183, B
#SPECTRUM    : Spectral Data Starts Here
-0.20000, 0.
-0.13000, 2.
-0.06000, 49.
0.01000, 5687.
0.08000, 188.
0.15000, 128.
0.22000, 109.
0.29000, 294.
0.36000, 80.
0.43000, 93.
0.50000, 1762.
0.57000, 602.
0.64000, 311.
0.71000, 853.
0.78000, 353.
0.85000, 69.
0.92000, 26.
0.99000, 55.
1.06000, 89.
1.13000, 56.
1.20000, 67.
1.27000, 65.
1.34000, 68.
1.41000, 68.
1.48000, 78.
1.55000, 85.
1.62000, 97.
1.69000, 100.
1.76000, 128.
1.83000, 104.
1.90000, 97.
1.97000, 93.
2.04000, 94.
2.11000, 94.
2.18000, 105.
2.25000, 86.
2.32000, 97.
2.39000, 105.
2.46000, 92.
2.53000, 109.
2.60000, 93.
2.67000, 105.
2.74000, 106.
2.81000, 100.
2.88000, 100.
2.95000, 86.
3.02000, 98.
3.09000, 87.
3.16000, 80.
3.23000, 87.
3.30000, 97.
3.37000, 82.
3.44000, 97.
3.51000, 72.
3.58000, 78.
3.65000, 84.
3.72000, 85.
3.79000, 81.
3.86000, 68.
3.93000, 74.
4.00000, 82.
4.07000, 67.
4.14000, 66.
4.21000, 66.
4.28000, 58.
4.35000, 66.
4.42000, 66.
4.49000, 70.
4.56000, 63.
4.63000, 81.
4.70000, 71.
4.77000, 65.
4.84000, 57.
4.91000, 59.
4.98000, 58.
5.05000, 53.
5.12000, 60.
5.19000, 56.
5.26000, 62.
5.33000, 54.
5.40000, 51.
5.47000, 40.
5.54000, 54.
5.61000, 54.
5.68000, 56.
5.75000, 43.
5.82000, 41.
5.89000, 53.
5.96000, 43.
6.03000, 47.
6.10000, 42.
6.17000, 42.
6.24000, 105.
6.31000, 658.
6.38000, 2020.
6.45000, 1481.
6.52000, 303.
6.59000, 60.
6.66000, 37.
6.73000, 45.
6.80000, 101.
6.87000, 438.
6.94000, 772.
7.01000, 523.
7.08000, 327.
7.15000, 115.
7.22000, 36.
7.29000, 32.
7.36000, 32.
7.43000, 33.
7.50000, 34.
7.57000, 61.
7.64000, 106.
7.71000, 87.
7.78000, 29.
7.85000, 23.
7.92000, 21.
7.99000, 23.
8.06000, 20.
8.13000, 19.
8.20000, 20.
8.27000, 23.
8.34000, 23.
8.41000, 28.
8.48000, 27.
8.55000, 19.
8.62000, 29.
8.69000, 23.
8.76000, 18.
8.83000, 28.
8.90000, 19.
8.97000, 17.
9.04000, 23.
9.11000, 24.
9.18000, 20.
9.25000, 20.
9.32000, 23.
9.39000, 19.
9.46000, 19.
9.53000, 17.
9.60000, 18.
9.67000, 21.
9.74000, 23.
9.81000, 17.
9.88000, 10.
9.95000, 17.
10.02000, 17.
10.09000, 16.
10.16000, 16.
10.23000, 15.
10.30000, 24.
10.37000, 14.
10.44000, 19.
10.51000, 15.
10.58000, 15.
10.65000, 14.
10.72000, 19.
10.79000, 12.
10.86000, 17.
10.93000, 13.
11.00000, 12.
11.07000, 21.
11.14000, 10.
11.21000, 22.
11.28000, 12.
11.35000, 9.
11.42000, 10.
11.49000, 15.
11.56000, 11.
11.63000, 14.
11.70000, 14.
11.77000, 14.
11.84000, 9.
11.91000, 16.
11.98000, 10.
12.05000, 11.
12.12000, 9.
12.19000, 16.
12.26000, 15.
12.33000, 9.
12.40000, 12.
12.47000, 8.
12.54000, 9.
12.61000, 11.
12.68000, 10.
12.75000, 7.
12.82000, 7.
12.89000, 9.
12.96000, 8.
13.03000, 6.
13.10000, 10.
13.17000, 7.
13.24000, 11.
13.31000, 5.
13.38000, 7.
13.45000, 9.
13.52000, 7.
13.59000, 12.
13.66000, 8.
13.73000, 6.
13.80000, 10.
13.87000, 11.
13.94000, 7.
14.01000, 10.
14.08000, 8.
14.15000, 9.
14.22000, 7.
14.29000, 7.
14.36000, 6.
14.43000, 8.
14.50000, 8.
14.57000, 7.
14.64000, 3.
14.71000, 11.
14.78000, 3.
14.85000, 10.
14.92000, 3.
14.99000, 4.
15.06000, 10.
15.13000, 9.
15.20000, 9.
15.27000, 4.
15.34000, 7.
15.41000, 5.
15.48000, 4.
15.55000, 5.
15.62000, 6.
15.69000, 3.
15.76000, 6.
15.83000, 2.
15.90000, 4.
15.97000, 4.
16.04000, 5.
16.11000, 6.
16.18000, 3.
16.25000, 6.
16.32000, 7.
16.39000, 9.
16.46000, 5.
16.53000, 3.
16.60000, 6.
16.67000, 1.
16.74000, 4.
16.81000, 4.
16.88000, 2.
16.95000, 4.
17.02000, 3.
17.09000, 4.
17.16000, 4.
17.23000, 2.
17.30000, 2.
17.37000, 4.
17.44000, 6.
17.51000, 1.
17.58000, 1.
17.65000, 5.
17.72000, 2.
17.79000, 0.
17.86000, 0.
17.93000, 3.
18.00000, 1.
18.07000, 0.
18.14000, 2.
18.21000, 1.
18.28000, 0.
18.35000, 0.
18.42000, 2.
18.49000, 0.
18.56000, 2.
18.63000, 1.
18.70000, 0.
18.77000, 1.
18.84000, 0.
18.91000, 0.
18.98000, 2.
19.05000, 1.
19.12000, 1.
19.19000, 2.
19.26000, 2.
19.33000, 1.
19.40000, 1.
19.47000, 1.
19.54000, 1.
19.61000, 0.
19.68000, 0.
19.75000, 0.
19.82000, 0.
19.89000, 0.
19.96000, 0.
20.03000, 0.
20.10000, 0.
20.17000, 0.
20.24000, 0.
20.27000, 0.
#ENDOFDATA   :