File: data/monolayers/nanoparticles/Ol_CoFe_C/edx/data/DD67_1.txt
#FORMAT      : EMSA/MAS Spectral Data File
#VERSION     : 1.0
#TITLE       : Spectrum 1
#DATE        : 04-DEC-2018
#TIME        : 10:31
#OWNER       :
#NPOINTS     : 2048.
#NCOLUMNS    : 1.
#XUNITS      : keV
#YUNITS      : counts
#DATATYPE    : XY
#XPERCHAN    : 0.0100000
#OFFSET      : -0.200000
#SIGNALTYPE  : EDS
#CHOFFSET    : 20.0000
#LIVETIME    : 100
#REALTIME    : 115.622
#BEAMKV      : 20.0000
#PROBECUR    : 0.000000
#MAGCAM      : 1390.00
#XTILTSTGE   : 0.0
#AZIMANGLE   : 0.0
#ELEVANGLE   : 35.0
#XPOSITION mm: 0.0000
#YPOSITION mm: 0.0000
#ZPOSITION mm: 0.0000
##OXINSTPT   : 5
##OXINSTSTROB: 49.22
##OXINSTELEMS: 6,8,11,26,27
##OXINSTLABEL: 26, 6.404, Fe
##OXINSTLABEL: 26, 7.058, Fe
##OXINSTLABEL: 26, 0.705, Fe
##OXINSTLABEL: 26, 0.628, Fe
##OXINSTLABEL: 27, 6.930, Co
##OXINSTLABEL: 27, 7.650, Co
##OXINSTLABEL: 27, 0.776, Co
##OXINSTLABEL: 27, 0.694, Co
##OXINSTLABEL: 27, 0.678, Co
##OXINSTLABEL: 8, 0.525, O
##OXINSTLABEL: 6, 0.277, C
##OXINSTLABEL: 11, 1.041, Na
#SPECTRUM    : Spectral Data Starts Here
-0.20000, 0.
-0.13000, 0.
-0.06000, 41.
0.01000, 5623.
0.08000, 155.
0.15000, 135.
0.22000, 137.
0.29000, 354.
0.36000, 62.
0.43000, 117.
0.50000, 2258.
0.57000, 803.
0.64000, 393.
0.71000, 1119.
0.78000, 440.
0.85000, 80.
0.92000, 54.
0.99000, 59.
1.06000, 99.
1.13000, 72.
1.20000, 66.
1.27000, 79.
1.34000, 105.
1.41000, 99.
1.48000, 110.
1.55000, 96.
1.62000, 103.
1.69000, 120.
1.76000, 124.
1.83000, 129.
1.90000, 99.
1.97000, 110.
2.04000, 111.
2.11000, 121.
2.18000, 106.
2.25000, 114.
2.32000, 111.
2.39000, 117.
2.46000, 113.
2.53000, 106.
2.60000, 106.
2.67000, 95.
2.74000, 98.
2.81000, 117.
2.88000, 107.
2.95000, 96.
3.02000, 99.
3.09000, 103.
3.16000, 85.
3.23000, 91.
3.30000, 85.
3.37000, 89.
3.44000, 92.
3.51000, 77.
3.58000, 74.
3.65000, 78.
3.72000, 72.
3.79000, 77.
3.86000, 94.
3.93000, 75.
4.00000, 70.
4.07000, 81.
4.14000, 60.
4.21000, 66.
4.28000, 73.
4.35000, 64.
4.42000, 61.
4.49000, 63.
4.56000, 55.
4.63000, 70.
4.70000, 59.
4.77000, 63.
4.84000, 65.
4.91000, 56.
4.98000, 41.
5.05000, 59.
5.12000, 50.
5.19000, 55.
5.26000, 55.
5.33000, 57.
5.40000, 56.
5.47000, 53.
5.54000, 48.
5.61000, 49.
5.68000, 38.
5.75000, 49.
5.82000, 45.
5.89000, 37.
5.96000, 33.
6.03000, 50.
6.10000, 51.
6.17000, 48.
6.24000, 90.
6.31000, 633.
6.38000, 1914.
6.45000, 1406.
6.52000, 274.
6.59000, 66.
6.66000, 39.
6.73000, 33.
6.80000, 101.
6.87000, 428.
6.94000, 686.
7.01000, 434.
7.08000, 280.
7.15000, 102.
7.22000, 28.
7.29000, 32.
7.36000, 37.
7.43000, 29.
7.50000, 26.
7.57000, 67.
7.64000, 85.
7.71000, 59.
7.78000, 31.
7.85000, 23.
7.92000, 20.
7.99000, 21.
8.06000, 23.
8.13000, 21.
8.20000, 23.
8.27000, 26.
8.34000, 23.
8.41000, 20.
8.48000, 24.
8.55000, 26.
8.62000, 22.
8.69000, 20.
8.76000, 27.
8.83000, 14.
8.90000, 18.
8.97000, 22.
9.04000, 22.
9.11000, 19.
9.18000, 20.
9.25000, 19.
9.32000, 18.
9.39000, 16.
9.46000, 18.
9.53000, 21.
9.60000, 18.
9.67000, 11.
9.74000, 17.
9.81000, 20.
9.88000, 16.
9.95000, 18.
10.02000, 21.
10.09000, 15.
10.16000, 12.
10.23000, 15.
10.30000, 14.
10.37000, 17.
10.44000, 15.
10.51000, 15.
10.58000, 12.
10.65000, 11.
10.72000, 10.
10.79000, 12.
10.86000, 14.
10.93000, 11.
11.00000, 12.
11.07000, 10.
11.14000, 10.
11.21000, 16.
11.28000, 9.
11.35000, 14.
11.42000, 17.
11.49000, 9.
11.56000, 10.
11.63000, 14.
11.70000, 12.
11.77000, 8.
11.84000, 11.
11.91000, 10.
11.98000, 12.
12.05000, 10.
12.12000, 7.
12.19000, 10.
12.26000, 9.
12.33000, 10.
12.40000, 14.
12.47000, 11.
12.54000, 8.
12.61000, 11.
12.68000, 12.
12.75000, 13.
12.82000, 6.
12.89000, 5.
12.96000, 8.
13.03000, 11.
13.10000, 9.
13.17000, 7.
13.24000, 10.
13.31000, 9.
13.38000, 9.
13.45000, 7.
13.52000, 9.
13.59000, 6.
13.66000, 8.
13.73000, 4.
13.80000, 6.
13.87000, 4.
13.94000, 6.
14.01000, 3.
14.08000, 5.
14.15000, 7.
14.22000, 5.
14.29000, 5.
14.36000, 8.
14.43000, 6.
14.50000, 10.
14.57000, 7.
14.64000, 5.
14.71000, 3.
14.78000, 6.
14.85000, 6.
14.92000, 3.
14.99000, 4.
15.06000, 7.
15.13000, 5.
15.20000, 3.
15.27000, 3.
15.34000, 6.
15.41000, 8.
15.48000, 4.
15.55000, 3.
15.62000, 4.
15.69000, 2.
15.76000, 2.
15.83000, 4.
15.90000, 5.
15.97000, 2.
16.04000, 5.
16.11000, 3.
16.18000, 2.
16.25000, 4.
16.32000, 3.
16.39000, 6.
16.46000, 0.
16.53000, 4.
16.60000, 1.
16.67000, 0.
16.74000, 0.
16.81000, 3.
16.88000, 4.
16.95000, 2.
17.02000, 0.
17.09000, 1.
17.16000, 3.
17.23000, 2.
17.30000, 4.
17.37000, 1.
17.44000, 3.
17.51000, 0.
17.58000, 0.
17.65000, 1.
17.72000, 0.
17.79000, 1.
17.86000, 1.
17.93000, 1.
18.00000, 0.
18.07000, 2.
18.14000, 2.
18.21000, 0.
18.28000, 1.
18.35000, 0.
18.42000, 2.
18.49000, 0.
18.56000, 0.
18.63000, 1.
18.70000, 0.
18.77000, 0.
18.84000, 0.
18.91000, 1.
18.98000, 0.
19.05000, 0.
19.12000, 0.
19.19000, 0.
19.26000, 0.
19.33000, 0.
19.40000, 0.
19.47000, 0.
19.54000, 0.
19.61000, 0.
19.68000, 0.
19.75000, 0.
19.82000, 0.
19.89000, 0.
19.96000, 0.
20.03000, 0.
20.10000, 0.
20.17000, 0.
20.24000, 0.
20.27000, 0.
#ENDOFDATA   :