File: data/monolayers/nanoparticles/Ol_CoFe_C/edx/data/DD67_5.txt
#FORMAT      : EMSA/MAS Spectral Data File
#VERSION     : 1.0
#TITLE       : Spectrum 1
#DATE        : 04-DEC-2018
#TIME        : 10:42
#OWNER       :
#NPOINTS     : 2048.
#NCOLUMNS    : 1.
#XUNITS      : keV
#YUNITS      : counts
#DATATYPE    : XY
#XPERCHAN    : 0.0100000
#OFFSET      : -0.200000
#SIGNALTYPE  : EDS
#CHOFFSET    : 20.0000
#LIVETIME    : 100
#REALTIME    : 116.387
#BEAMKV      : 20.0000
#PROBECUR    : 0.000000
#MAGCAM      : 1390.00
#XTILTSTGE   : 0.0
#AZIMANGLE   : 0.0
#ELEVANGLE   : 35.0
#XPOSITION mm: 0.0000
#YPOSITION mm: 0.0000
#ZPOSITION mm: 0.0000
##OXINSTPT   : 5
##OXINSTSTROB: 49.14
##OXINSTELEMS: 6,8,11,26,27
##OXINSTLABEL: 26, 6.404, Fe
##OXINSTLABEL: 26, 7.058, Fe
##OXINSTLABEL: 26, 0.705, Fe
##OXINSTLABEL: 26, 0.628, Fe
##OXINSTLABEL: 27, 6.930, Co
##OXINSTLABEL: 27, 7.650, Co
##OXINSTLABEL: 27, 0.776, Co
##OXINSTLABEL: 27, 0.694, Co
##OXINSTLABEL: 27, 0.678, Co
##OXINSTLABEL: 8, 0.525, O
##OXINSTLABEL: 6, 0.277, C
##OXINSTLABEL: 11, 1.041, Na
#SPECTRUM    : Spectral Data Starts Here
-0.20000, 0.
-0.13000, 0.
-0.06000, 45.
0.01000, 5583.
0.08000, 139.
0.15000, 50.
0.22000, 102.
0.29000, 319.
0.36000, 58.
0.43000, 126.
0.50000, 2101.
0.57000, 752.
0.64000, 375.
0.71000, 1125.
0.78000, 536.
0.85000, 96.
0.92000, 52.
0.99000, 74.
1.06000, 116.
1.13000, 77.
1.20000, 78.
1.27000, 83.
1.34000, 90.
1.41000, 88.
1.48000, 114.
1.55000, 94.
1.62000, 102.
1.69000, 118.
1.76000, 132.
1.83000, 120.
1.90000, 110.
1.97000, 127.
2.04000, 123.
2.11000, 127.
2.18000, 123.
2.25000, 102.
2.32000, 122.
2.39000, 105.
2.46000, 113.
2.53000, 123.
2.60000, 115.
2.67000, 110.
2.74000, 107.
2.81000, 97.
2.88000, 107.
2.95000, 113.
3.02000, 113.
3.09000, 107.
3.16000, 86.
3.23000, 88.
3.30000, 95.
3.37000, 92.
3.44000, 92.
3.51000, 87.
3.58000, 83.
3.65000, 91.
3.72000, 81.
3.79000, 72.
3.86000, 80.
3.93000, 85.
4.00000, 74.
4.07000, 84.
4.14000, 72.
4.21000, 74.
4.28000, 68.
4.35000, 70.
4.42000, 59.
4.49000, 73.
4.56000, 65.
4.63000, 71.
4.70000, 75.
4.77000, 59.
4.84000, 63.
4.91000, 60.
4.98000, 51.
5.05000, 58.
5.12000, 59.
5.19000, 69.
5.26000, 54.
5.33000, 55.
5.40000, 51.
5.47000, 51.
5.54000, 52.
5.61000, 43.
5.68000, 37.
5.75000, 40.
5.82000, 47.
5.89000, 48.
5.96000, 47.
6.03000, 46.
6.10000, 50.
6.17000, 47.
6.24000, 74.
6.31000, 636.
6.38000, 1879.
6.45000, 1557.
6.52000, 297.
6.59000, 49.
6.66000, 42.
6.73000, 41.
6.80000, 130.
6.87000, 652.
6.94000, 870.
7.01000, 568.
7.08000, 311.
7.15000, 111.
7.22000, 36.
7.29000, 30.
7.36000, 35.
7.43000, 40.
7.50000, 38.
7.57000, 97.
7.64000, 126.
7.71000, 83.
7.78000, 35.
7.85000, 17.
7.92000, 34.
7.99000, 27.
8.06000, 32.
8.13000, 35.
8.20000, 23.
8.27000, 21.
8.34000, 26.
8.41000, 22.
8.48000, 17.
8.55000, 21.
8.62000, 23.
8.69000, 19.
8.76000, 17.
8.83000, 15.
8.90000, 19.
8.97000, 21.
9.04000, 20.
9.11000, 21.
9.18000, 17.
9.25000, 12.
9.32000, 19.
9.39000, 23.
9.46000, 17.
9.53000, 19.
9.60000, 13.
9.67000, 17.
9.74000, 22.
9.81000, 17.
9.88000, 18.
9.95000, 14.
10.02000, 22.
10.09000, 15.
10.16000, 22.
10.23000, 22.
10.30000, 11.
10.37000, 12.
10.44000, 13.
10.51000, 19.
10.58000, 18.
10.65000, 16.
10.72000, 15.
10.79000, 24.
10.86000, 13.
10.93000, 15.
11.00000, 15.
11.07000, 12.
11.14000, 9.
11.21000, 8.
11.28000, 18.
11.35000, 11.
11.42000, 13.
11.49000, 15.
11.56000, 13.
11.63000, 11.
11.70000, 14.
11.77000, 17.
11.84000, 21.
11.91000, 8.
11.98000, 9.
12.05000, 12.
12.12000, 11.
12.19000, 18.
12.26000, 9.
12.33000, 11.
12.40000, 10.
12.47000, 14.
12.54000, 6.
12.61000, 12.
12.68000, 8.
12.75000, 5.
12.82000, 8.
12.89000, 10.
12.96000, 14.
13.03000, 8.
13.10000, 8.
13.17000, 5.
13.24000, 12.
13.31000, 8.
13.38000, 7.
13.45000, 9.
13.52000, 8.
13.59000, 7.
13.66000, 9.
13.73000, 10.
13.80000, 11.
13.87000, 7.
13.94000, 9.
14.01000, 8.
14.08000, 9.
14.15000, 9.
14.22000, 12.
14.29000, 5.
14.36000, 7.
14.43000, 11.
14.50000, 5.
14.57000, 4.
14.64000, 8.
14.71000, 5.
14.78000, 7.
14.85000, 4.
14.92000, 4.
14.99000, 6.
15.06000, 6.
15.13000, 5.
15.20000, 5.
15.27000, 6.
15.34000, 8.
15.41000, 1.
15.48000, 5.
15.55000, 6.
15.62000, 3.
15.69000, 4.
15.76000, 6.
15.83000, 3.
15.90000, 6.
15.97000, 3.
16.04000, 7.
16.11000, 1.
16.18000, 2.
16.25000, 4.
16.32000, 4.
16.39000, 1.
16.46000, 3.
16.53000, 3.
16.60000, 4.
16.67000, 2.
16.74000, 5.
16.81000, 4.
16.88000, 4.
16.95000, 1.
17.02000, 5.
17.09000, 3.
17.16000, 5.
17.23000, 1.
17.30000, 0.
17.37000, 3.
17.44000, 1.
17.51000, 0.
17.58000, 3.
17.65000, 1.
17.72000, 3.
17.79000, 0.
17.86000, 2.
17.93000, 4.
18.00000, 1.
18.07000, 1.
18.14000, 1.
18.21000, 1.
18.28000, 0.
18.35000, 2.
18.42000, 2.
18.49000, 0.
18.56000, 2.
18.63000, 2.
18.70000, 0.
18.77000, 0.
18.84000, 3.
18.91000, 0.
18.98000, 2.
19.05000, 0.
19.12000, 4.
19.19000, 1.
19.26000, 1.
19.33000, 0.
19.40000, 1.
19.47000, 0.
19.54000, 0.
19.61000, 0.
19.68000, 0.
19.75000, 0.
19.82000, 0.
19.89000, 0.
19.96000, 0.
20.03000, 0.
20.10000, 0.
20.17000, 0.
20.24000, 0.
20.27000, 0.
#ENDOFDATA   :