File: data/monolayers/nanoparticles/Ol_CoFe_C/edx/data/DD67_4.txt
#FORMAT      : EMSA/MAS Spectral Data File
#VERSION     : 1.0
#TITLE       : Spectrum 1
#DATE        : 04-DEC-2018
#TIME        : 10:39
#OWNER       :
#NPOINTS     : 2048.
#NCOLUMNS    : 1.
#XUNITS      : keV
#YUNITS      : counts
#DATATYPE    : XY
#XPERCHAN    : 0.0100000
#OFFSET      : -0.200000
#SIGNALTYPE  : EDS
#CHOFFSET    : 20.0000
#LIVETIME    : 100
#REALTIME    : 114.872
#BEAMKV      : 20.0000
#PROBECUR    : 0.000000
#MAGCAM      : 1390.00
#XTILTSTGE   : 0.0
#AZIMANGLE   : 0.0
#ELEVANGLE   : 35.0
#XPOSITION mm: 0.0000
#YPOSITION mm: 0.0000
#ZPOSITION mm: 0.0000
##OXINSTPT   : 5
##OXINSTSTROB: 49.12
##OXINSTELEMS: 6,8,11,26,27
##OXINSTLABEL: 26, 6.404, Fe
##OXINSTLABEL: 26, 7.058, Fe
##OXINSTLABEL: 26, 0.705, Fe
##OXINSTLABEL: 26, 0.628, Fe
##OXINSTLABEL: 8, 0.525, O
##OXINSTLABEL: 27, 6.930, Co
##OXINSTLABEL: 27, 7.650, Co
##OXINSTLABEL: 27, 0.776, Co
##OXINSTLABEL: 27, 0.694, Co
##OXINSTLABEL: 27, 0.678, Co
##OXINSTLABEL: 6, 0.277, C
##OXINSTLABEL: 11, 1.041, Na
#SPECTRUM    : Spectral Data Starts Here
-0.20000, 0.
-0.13000, 0.
-0.06000, 41.
0.01000, 5521.
0.08000, 124.
0.15000, 27.
0.22000, 71.
0.29000, 210.
0.36000, 41.
0.43000, 95.
0.50000, 1771.
0.57000, 593.
0.64000, 285.
0.71000, 874.
0.78000, 348.
0.85000, 75.
0.92000, 39.
0.99000, 44.
1.06000, 72.
1.13000, 53.
1.20000, 61.
1.27000, 79.
1.34000, 76.
1.41000, 75.
1.48000, 88.
1.55000, 98.
1.62000, 95.
1.69000, 109.
1.76000, 113.
1.83000, 116.
1.90000, 96.
1.97000, 99.
2.04000, 107.
2.11000, 110.
2.18000, 115.
2.25000, 105.
2.32000, 110.
2.39000, 98.
2.46000, 107.
2.53000, 112.
2.60000, 106.
2.67000, 97.
2.74000, 97.
2.81000, 92.
2.88000, 94.
2.95000, 102.
3.02000, 95.
3.09000, 97.
3.16000, 92.
3.23000, 94.
3.30000, 83.
3.37000, 87.
3.44000, 91.
3.51000, 89.
3.58000, 85.
3.65000, 82.
3.72000, 81.
3.79000, 83.
3.86000, 75.
3.93000, 81.
4.00000, 73.
4.07000, 67.
4.14000, 74.
4.21000, 67.
4.28000, 76.
4.35000, 62.
4.42000, 67.
4.49000, 64.
4.56000, 65.
4.63000, 81.
4.70000, 71.
4.77000, 62.
4.84000, 62.
4.91000, 58.
4.98000, 65.
5.05000, 50.
5.12000, 51.
5.19000, 52.
5.26000, 58.
5.33000, 62.
5.40000, 45.
5.47000, 45.
5.54000, 60.
5.61000, 56.
5.68000, 50.
5.75000, 47.
5.82000, 44.
5.89000, 49.
5.96000, 45.
6.03000, 34.
6.10000, 48.
6.17000, 46.
6.24000, 78.
6.31000, 673.
6.38000, 1941.
6.45000, 1487.
6.52000, 258.
6.59000, 43.
6.66000, 32.
6.73000, 50.
6.80000, 119.
6.87000, 439.
6.94000, 729.
7.01000, 482.
7.08000, 303.
7.15000, 116.
7.22000, 39.
7.29000, 25.
7.36000, 27.
7.43000, 22.
7.50000, 36.
7.57000, 58.
7.64000, 104.
7.71000, 76.
7.78000, 40.
7.85000, 21.
7.92000, 23.
7.99000, 24.
8.06000, 28.
8.13000, 20.
8.20000, 30.
8.27000, 16.
8.34000, 19.
8.41000, 27.
8.48000, 24.
8.55000, 30.
8.62000, 33.
8.69000, 16.
8.76000, 21.
8.83000, 23.
8.90000, 21.
8.97000, 21.
9.04000, 12.
9.11000, 20.
9.18000, 27.
9.25000, 21.
9.32000, 22.
9.39000, 17.
9.46000, 16.
9.53000, 17.
9.60000, 16.
9.67000, 14.
9.74000, 22.
9.81000, 19.
9.88000, 12.
9.95000, 15.
10.02000, 16.
10.09000, 9.
10.16000, 15.
10.23000, 20.
10.30000, 16.
10.37000, 14.
10.44000, 19.
10.51000, 14.
10.58000, 18.
10.65000, 21.
10.72000, 15.
10.79000, 11.
10.86000, 17.
10.93000, 14.
11.00000, 13.
11.07000, 18.
11.14000, 12.
11.21000, 12.
11.28000, 8.
11.35000, 14.
11.42000, 11.
11.49000, 10.
11.56000, 10.
11.63000, 12.
11.70000, 11.
11.77000, 9.
11.84000, 14.
11.91000, 11.
11.98000, 11.
12.05000, 13.
12.12000, 9.
12.19000, 12.
12.26000, 9.
12.33000, 10.
12.40000, 15.
12.47000, 7.
12.54000, 11.
12.61000, 14.
12.68000, 9.
12.75000, 7.
12.82000, 8.
12.89000, 8.
12.96000, 11.
13.03000, 11.
13.10000, 9.
13.17000, 9.
13.24000, 11.
13.31000, 6.
13.38000, 9.
13.45000, 9.
13.52000, 4.
13.59000, 6.
13.66000, 6.
13.73000, 6.
13.80000, 9.
13.87000, 7.
13.94000, 5.
14.01000, 6.
14.08000, 7.
14.15000, 5.
14.22000, 6.
14.29000, 6.
14.36000, 7.
14.43000, 5.
14.50000, 5.
14.57000, 4.
14.64000, 4.
14.71000, 7.
14.78000, 8.
14.85000, 10.
14.92000, 8.
14.99000, 4.
15.06000, 5.
15.13000, 5.
15.20000, 6.
15.27000, 5.
15.34000, 8.
15.41000, 2.
15.48000, 6.
15.55000, 5.
15.62000, 5.
15.69000, 5.
15.76000, 3.
15.83000, 4.
15.90000, 4.
15.97000, 10.
16.04000, 2.
16.11000, 8.
16.18000, 2.
16.25000, 5.
16.32000, 3.
16.39000, 1.
16.46000, 1.
16.53000, 1.
16.60000, 1.
16.67000, 3.
16.74000, 4.
16.81000, 1.
16.88000, 5.
16.95000, 4.
17.02000, 2.
17.09000, 2.
17.16000, 4.
17.23000, 2.
17.30000, 3.
17.37000, 3.
17.44000, 2.
17.51000, 2.
17.58000, 2.
17.65000, 4.
17.72000, 1.
17.79000, 1.
17.86000, 3.
17.93000, 3.
18.00000, 1.
18.07000, 0.
18.14000, 1.
18.21000, 2.
18.28000, 6.
18.35000, 0.
18.42000, 3.
18.49000, 0.
18.56000, 0.
18.63000, 2.
18.70000, 0.
18.77000, 1.
18.84000, 3.
18.91000, 0.
18.98000, 1.
19.05000, 0.
19.12000, 0.
19.19000, 0.
19.26000, 1.
19.33000, 1.
19.40000, 1.
19.47000, 0.
19.54000, 0.
19.61000, 0.
19.68000, 0.
19.75000, 0.
19.82000, 0.
19.89000, 0.
19.96000, 0.
20.03000, 0.
20.10000, 0.
20.17000, 0.
20.24000, 0.
20.27000, 0.
#ENDOFDATA   :