File: data/monolayers/nanoparticles/Ol_CoFe_C/vsm/Backup/rescale/DD67_ZFC_LangevinSAXSscaled.xye
#Executed at: 2018-11-13 00:54:13.1572
#Loaded File	 = ../rawdata/DD172_6_ZFCw_100OE.DAT
#Rescale Factor	 = 0.0244316
#[[Data]]
#T/K	M/kAm-1	sM/kAm-1	M_raw/memu	sM_raw/memu
10.0076	0.116048	0.0080275	4.7499	0.32857
11.0628	0.113184	0.00868467	4.63267	0.355468
12.5212	0.123716	0.00708616	5.06378	0.29004
14.0219	0.116096	0.00637173	4.75185	0.260798
15.507	0.120319	0.00735113	4.92473	0.300886
17.0269	0.115838	0.00760669	4.74131	0.311346
18.5051	0.118689	0.00720316	4.85799	0.294829
20.0321	0.126807	0.00838795	5.19028	0.343323
21.5052	0.129724	0.00801859	5.30966	0.328205
23.0357	0.131163	0.00683612	5.36859	0.279806
24.5476	0.129642	0.00745481	5.3063	0.305129
26.0006	0.128958	0.00762478	5.2783	0.312086
27.5597	0.137076	0.00795393	5.6106	0.325558
29.0529	0.137376	0.00821896	5.62288	0.336406
31.295	0.139716	0.0086063	5.71865	0.35226
32.5209	0.143828	0.00750052	5.88695	0.307
34.0544	0.139529	0.00711442	5.71098	0.291197
35.5421	0.153996	0.00785117	6.30314	0.321353
37.0692	0.155394	0.00796229	6.36037	0.3259
38.5752	0.152049	0.00767915	6.22343	0.314312
40.0102	0.15277	0.00721392	6.25297	0.29527
42.0532	0.170804	0.00776509	6.99111	0.317829
43.5158	0.156244	0.00836469	6.39517	0.342371
45.0045	0.163522	0.00809873	6.69303	0.331485
46.5639	0.159675	0.00850319	6.53557	0.34804
48.0317	0.170991	0.00583215	6.99874	0.238713
49.5138	0.166552	0.00853463	6.81705	0.349327
51.0028	0.167813	0.00727772	6.86866	0.297881
53.0339	0.176242	0.00740407	7.21368	0.303052
54.5349	0.175019	0.00793358	7.16363	0.324726
56.005	0.183118	0.00840593	7.49511	0.344059
57.5772	0.184578	0.00813681	7.55489	0.333044
59.0519	0.177962	0.00835044	7.28408	0.341788
60.5322	0.178561	0.00796871	7.30859	0.326163
62.5424	0.18223	0.00746311	7.45877	0.305469
64.0113	0.186052	0.00766459	7.6152	0.313715
65.5005	0.18659	0.00709046	7.63724	0.290216
67.0021	0.189777	0.007911	7.76766	0.323801
68.52034	0.192547	0.00816113	7.88106	0.334039
70.0246	0.197697	0.00856208	8.09185	0.35045
71.5175	0.200677	0.00823399	8.21383	0.337022
73.0354	0.206596	0.00984043	8.45609	0.402774
74.5381	0.199369	0.00819121	8.16026	0.33527
76.0242	0.209827	0.00789407	8.58831	0.323109
77.5137	0.210492	0.00716728	8.61554	0.293361
79.0392	0.217566	0.00871907	8.9051	0.356876
80.5616	0.21508	0.00710286	8.80332	0.290724
82.0656	0.220819	0.00712934	9.03825	0.291808
84.0047	0.229361	0.00748076	9.38787	0.306191
85.5694	0.229233	0.00729019	9.38262	0.298391
87.0449	0.225311	0.00906338	9.22209	0.370969
88.5373	0.240805	0.00717451	9.85628	0.293657
90.0482	0.226789	0.00799472	9.28257	0.327228
91.5101	0.248164	0.00736018	10.1575	0.301256
93.974	0.256862	0.00776266	10.5135	0.31773
95.0115	0.244878	0.00789501	10.023	0.323147
96.5463	0.251252	0.00936779	10.2839	0.383429
98.0322	0.258288	0.0108455	10.5719	0.443913
99.5459	0.262078	0.00778819	10.727	0.318775
101.028	0.267158	0.00895898	10.9349	0.366696
102.523	0.259122	0.00838897	10.606	0.343365
104.531	0.275705	0.00896823	11.2847	0.367074
106.016	0.278264	0.00994512	11.3895	0.407059
107.5	0.283787	0.00869964	11.6155	0.356081
109.03	0.28557	0.00839619	11.6885	0.34366
110.533	0.298722	0.00788288	12.2268	0.32265
112.05	0.298943	0.00797263	12.2359	0.326324
113.518	0.306944	0.00811921	12.5634	0.332324
115.508	0.302625	0.00808889	12.3866	0.331082
117.026	0.317808	0.00801896	13.008	0.32822
118.504	0.320727	0.00893758	13.1275	0.36582
120.009	0.327024	0.0080518	13.3853	0.329564
121.561	0.332053	0.00908544	13.5911	0.371872
123.023	0.336368	0.00810257	13.7677	0.331642
125.027	0.351184	0.00843926	14.3741	0.345423
126.512	0.359955	0.00733143	14.7331	0.300079
128.005	0.360437	0.00933738	14.7529	0.382184
129.529	0.374729	0.00807375	15.3378	0.330463
131.054	0.384858	0.00896657	15.7524	0.367006
132.561	0.402095	0.00925404	16.458	0.378773
134.052	0.414811	0.00865973	16.9784	0.354447
135.524	0.427075	0.00728227	17.4804	0.298067
137.057	0.441241	0.00861612	18.0602	0.352662
138.501	0.451057	0.00756924	18.462	0.309813
140.029	0.462509	0.00778691	18.9307	0.318722
141.502	0.489364	0.00742234	20.0299	0.3038
143.028	0.507585	0.00774457	20.7757	0.316989
144.514	0.530963	0.00722696	21.7326	0.295803
146.532	0.561438	0.00728434	22.9799	0.298152
148.003	0.592418	0.00768723	24.248	0.314642
149.542	0.629354	0.00889791	25.7598	0.364196
151.048	0.653352	0.00729436	26.742	0.298562
152.52	0.694759	0.00893292	28.4368	0.365629
154.049	0.72407	0.00958312	29.6366	0.392242
156.16	0.795436	0.00710489	32.5576	0.290807
157.501	0.825684	0.00894198	33.7957	0.366
159.033	0.888363	0.00860493	36.3611	0.352204
160.533	0.925413	0.00884041	37.8776	0.361843
162.025	0.987928	0.00985483	40.4364	0.403363
163.521	1.044	0.0083535	42.7315	0.341913
165.021	1.09153	0.00881608	44.677	0.360847
167.007	1.18327	0.00890781	48.432	0.364601
168.501	1.24079	0.00896729	50.7862	0.367036
170.008	1.30197	0.00713213	53.2902	0.291922
171.518	1.37485	0.00822432	56.2733	0.336626
173.041	1.44969	0.00855944	59.3366	0.350342
174.544	1.51319	0.00911476	61.9358	0.373072
176.006	1.58842	0.00820914	65.0148	0.336004
178.002	1.68652	0.00757992	69.0303	0.31025
179.513	1.74826	0.00883259	71.557	0.361523
181.056	1.82938	0.00902519	74.8774	0.369406
182.53	1.90764	0.00912174	78.0807	0.373357
184.006	1.9737	0.0093552	80.7846	0.382913
185.549	2.04177	0.00851885	83.5708	0.348681
187.498	2.14286	0.00956651	87.7085	0.391562
188.543	2.17777	0.00833354	89.1372	0.341096
190.009	2.23994	0.00911945	91.6819	0.373264
191.527	2.30678	0.0080214	94.4179	0.32832
193.066	2.37369	0.00991933	97.1563	0.406003
194.518	2.41369	0.00929177	98.7938	0.380317
196.003	2.47693	0.00981864	101.382	0.401882
197.877	2.54779	0.00711992	104.283	0.291422
199.026	2.58503	0.00961867	105.807	0.393697
200.5	2.62232	0.0100899	107.333	0.412984
202.005	2.66195	0.0102089	108.955	0.417854
203.549	2.70249	0.0107815	110.614	0.441294
205.026	2.7289	0.00945477	111.695	0.386989
206.549	2.75807	0.00934872	112.889	0.382648
208.518	2.79385	0.00929738	114.354	0.380546
210.037	2.81552	0.008776	115.241	0.359206
211.517	2.83245	0.0104953	115.934	0.429579
213.019	2.84696	0.00903709	116.528	0.369893
214.553	2.84657	0.00953986	116.511	0.390471
216.015	2.85681	0.0114795	116.931	0.469864
217.551	2.85302	0.00886635	116.776	0.362904
219.5	2.85603	0.0110224	116.899	0.451152
221.017	2.83822	0.00991787	116.17	0.405943
222.523	2.85098	0.00905347	116.692	0.370563
224.051	2.83439	0.00943722	116.013	0.38627
225.509	2.8186	0.0100611	115.367	0.411805
227.062	2.81682	0.00955181	115.294	0.390961
229.121	2.79697	0.00984969	114.481	0.403153
230.541	2.77445	0.00917648	113.56	0.375598
232.061	2.76382	0.0109078	113.124	0.446463
233.523	2.74581	0.0111117	112.388	0.454806
235.054	2.73688	0.00863887	112.022	0.353593
236.551	2.69748	0.00905335	110.409	0.370558
238.054	2.67841	0.00836008	109.629	0.342182
240.042	2.65047	0.00914393	108.485	0.374266
241.553	2.63366	0.0100944	107.797	0.41317
243.044	2.59673	0.00824078	106.285	0.337299
244.507	2.57921	0.0113585	105.569	0.464908
246.003	2.55329	0.00948467	104.507	0.388212
247.516	2.53329	0.00994181	103.689	0.406923
249.053	2.49647	0.00998133	102.182	0.408541
251.019	2.46703	0.00855492	100.977	0.350157
252.529	2.44064	0.0100294	99.8966	0.410508
254.023	2.41424	0.0101789	98.8162	0.416629
255.501	2.39221	0.00860739	97.9142	0.352305
257.035	2.36414	0.00911497	96.7653	0.373081
258.506	2.34803	0.0097743	96.1061	0.400067
260.403	2.32452	0.00809213	95.144	0.331215
261.544	2.30646	0.00980132	94.4044	0.401173
263.06	2.26131	0.0105209	92.5566	0.430627
264.509	2.25285	0.00767232	92.2103	0.314032
266.057	2.21657	0.00998508	90.7252	0.408695
267.524	2.20697	0.0103346	90.3325	0.423001
269.002	2.17454	0.010008	89.0049	0.409633
271.052	2.15583	0.0102099	88.2391	0.417896
272.548	2.11651	0.0113963	86.6297	0.466455
274.043	2.10501	0.0108953	86.1591	0.44595
275.52	2.08161	0.00929218	85.2013	0.380334
277.049	2.05933	0.00948966	84.2896	0.388417
278.543	2.03189	0.010082	83.1664	0.412662
280.061	2.01422	0.00929351	82.4429	0.380388
282.035	1.98795	0.0107877	81.3676	0.441544
283.508	1.96365	0.008877	80.3733	0.36334
285.008	1.95603	0.00881694	80.0614	0.360882
286.504	1.92972	0.0102906	78.9846	0.421201
288.041	1.89892	0.0115938	77.7237	0.47454
289.506	1.88293	0.0103864	77.0694	0.425119
291.592	1.86927	0.00972246	76.5102	0.397945
293.025	1.84798	0.0112524	75.6388	0.460566
294.559	1.80953	0.00984135	74.0652	0.402811
296.042	1.79357	0.0108912	73.4118	0.445784
297.529	1.7758	0.00947927	72.6845	0.387991
299.059	1.7569	0.0102557	71.9106	0.419772
300.507	1.74377	0.00975935	71.3732	0.399455
302.043	1.72979	0.0107307	70.801	0.439214
303.544	1.72597	0.0101275	70.6448	0.414522
305.025	1.68921	0.0103126	69.1404	0.422101
306.53	1.68654	0.00993796	69.031	0.406766
308.039	1.65283	0.0115103	67.6513	0.471123
309.508	1.64394	0.0104689	67.2873	0.428496
311.053	1.62281	0.0108286	66.4225	0.443219
312.516	1.61733	0.0129299	66.1983	0.529226
314.022	1.60446	0.012426	65.6712	0.508601
315.551	1.5712	0.0116253	64.31	0.475831
317.011	1.55693	0.009499	63.726	0.388799
318.516	1.53804	0.00843375	62.9527	0.345198
320.095	1.52813	0.00909898	62.5471	0.372426
321.516	1.50448	0.0126085	61.5792	0.516073
323.502	1.49172	0.0106119	61.057	0.434352
325.041	1.46022	0.0123794	59.7676	0.506696
326.517	1.45389	0.0108896	59.5083	0.445717
328.051	1.44357	0.0104994	59.086	0.429746
329.504	1.43084	0.0106622	58.5651	0.436408
331.023	1.4139	0.0119254	57.8718	0.488112
333.263	1.38972	0.0134748	56.882	0.551531
334.528	1.38939	0.0113986	56.8684	0.466551
336.01	1.37937	0.0109993	56.4584	0.450208
337.518	1.34648	0.0109336	55.112	0.447517
339.022	1.33469	0.0112143	54.6296	0.459008
340.525	1.32428	0.0125133	54.2035	0.512174
342.011	1.31615	0.0097548	53.8708	0.399269
344.014	1.31251	0.0113619	53.7215	0.465046
345.546	1.27821	0.00923637	52.3178	0.378049
347.006	1.2793	0.0123891	52.3625	0.507093
348.508	1.26373	0.0112088	51.7253	0.458783
349.752	1.24278	0.0117481	50.8675	0.480856