File: data/monolayers/nanoparticles/Ol_CoFe_C/vsm/Backup/rescale/DD67_FCw_LangevinSAXSscaled.xye
#Executed at: 2018-11-13 00:54:13.1732
#Loaded File	 = ../rawdata/DD172_6_FCW_100OE.DAT
#Rescale Factor	 = 0.0244316
#[[Data]]
#T/K	M/kAm-1	sM/kAm-1	M_raw/memu	sM_raw/memu
10.0052	4.15622	0.00854141	170.116	0.349604
10.013	4.16075	0.00872117	170.301	0.356962
10.5423	4.14931	0.00753048	169.834	0.308227
11.0185	4.15162	0.00836501	169.928	0.342384
11.5288	4.14551	0.00737352	169.678	0.301802
12.0056	4.14862	0.00882429	169.805	0.361183
12.5171	4.1447	0.00741037	169.645	0.30331
13.0476	4.15179	0.00920864	169.935	0.376915
13.5039	4.14466	0.00784829	169.643	0.321235
14.0201	4.14505	0.00786129	169.659	0.321767
14.5611	4.1617	0.00814965	170.34	0.333569
15.0107	4.15466	0.00850838	170.052	0.348252
15.5324	4.15935	0.00882603	170.244	0.361254
16.0213	4.14956	0.0086872	169.844	0.355572
16.5189	4.14816	0.00719419	169.786	0.294462
17.0051	4.15502	0.00646573	170.067	0.264645
17.5182	4.14639	0.0080104	169.714	0.32787
18.0209	4.15182	0.00778517	169.936	0.318651
18.546	4.14573	0.0100343	169.687	0.410709
19.0206	4.14531	0.00777218	169.67	0.318119
19.5058	4.14365	0.00956314	169.602	0.391424
20.7193	4.14267	0.00888767	169.562	0.363777
21.0652	4.14529	0.00892625	169.669	0.365356
21.5175	4.15462	0.00903577	170.051	0.369839
22.0174	4.15018	0.00759356	169.869	0.310808
22.5496	4.14162	0.00875308	169.519	0.358268
23.038	4.14595	0.0087803	169.696	0.359382
23.5066	4.14564	0.00721599	169.683	0.295354
24.0463	4.14398	0.00705496	169.615	0.288763
24.5325	4.14541	0.0076366	169.674	0.31257
25.0397	4.13956	0.00906604	169.434	0.371078
25.5029	4.1379	0.00849249	169.367	0.347602
26.0532	4.14637	0.0078083	169.713	0.319598
26.5503	4.14519	0.00860472	169.665	0.352196
27.0349	4.14662	0.00836866	169.723	0.342534
27.5247	4.14575	0.00694912	169.688	0.284431
28.049	4.14483	0.00860419	169.65	0.352174
28.5542	4.1475	0.00722898	169.759	0.295886
29.0603	4.14462	0.00696199	169.642	0.284958
29.5554	4.15136	0.00810261	169.917	0.331644
30.0032	4.14515	0.00660956	169.663	0.270533
31.1381	4.14692	0.00674804	169.736	0.276201
31.5172	4.14647	0.00674673	169.717	0.276147
32.0268	4.13903	0.00829623	169.413	0.339569
32.5474	4.14375	0.00659058	169.606	0.269756
33.0235	4.1352	0.00662703	169.256	0.271248
33.5146	4.13911	0.00768365	169.416	0.314496
34.049	4.14314	0.00724569	169.581	0.29657
34.5334	4.13893	0.00800573	169.408	0.327679
35.055	4.13148	0.00742392	169.103	0.303865
35.5435	4.13528	0.00814288	169.259	0.333292
36.0244	4.13176	0.00927589	169.115	0.379667
36.5343	4.13871	0.00846221	169.399	0.346363
37.0175	4.13703	0.00870728	169.331	0.356394
37.5024	4.14073	0.00889439	169.482	0.364052
38.0185	4.13869	0.00692087	169.399	0.283275
38.5646	4.13662	0.00794259	169.314	0.325094
39.0044	4.13291	0.00831543	169.162	0.340355
39.5086	4.13793	0.00853776	169.367	0.349455
40.052	4.13868	0.00861745	169.398	0.352717
40.5635	4.13183	0.00807926	169.118	0.330688
41.5251	4.13672	0.00889389	169.318	0.364032
42.0406	4.13427	0.00868247	169.218	0.355378
42.5537	4.13474	0.00770829	169.237	0.315504
43.0209	4.13744	0.00869096	169.347	0.355726
43.5005	4.13397	0.00802896	169.205	0.32863
44.0593	4.13378	0.00902074	169.198	0.369224
44.5042	4.13549	0.00786892	169.268	0.322079
45.0132	4.12785	0.00805038	168.955	0.329506
45.5161	4.12803	0.00852643	168.962	0.348991
46.0281	4.13637	0.00612974	169.304	0.250893
46.5304	4.12672	0.00761341	168.909	0.311621
47.0285	4.12506	0.00861976	168.841	0.352811
47.5392	4.12947	0.00890604	169.021	0.364529
48.0337	4.12694	0.00909072	168.918	0.372088
48.5377	4.13377	0.00901986	169.197	0.369188
49.0357	4.12642	0.00746635	168.897	0.305602
49.5481	4.13559	0.00686134	169.272	0.280838
50.0174	4.12751	0.00780005	168.941	0.31926
50.5417	4.12267	0.00710846	168.743	0.290953
51.0435	4.13332	0.0082775	169.179	0.338802
51.9085	4.13035	0.00926056	169.057	0.37904
52.0365	4.12354	0.00750838	168.778	0.307322
52.5013	4.12287	0.00817482	168.751	0.334599
53.051	4.12011	0.0085751	168.638	0.350983
53.5432	4.11081	0.00721352	168.258	0.295253
54.0433	4.1173	0.00714106	168.523	0.292287
54.514	4.11196	0.00767376	168.304	0.314091
55.0104	4.11179	0.00857903	168.298	0.351144
55.5252	4.11876	0.00862288	168.583	0.352939
56.0206	4.11454	0.00908092	168.41	0.371687
56.5303	4.11709	0.00818949	168.515	0.3352
57.0257	4.11752	0.00797167	168.532	0.326284
57.5407	4.11145	0.00707407	168.284	0.289545
58.0028	4.11745	0.00973563	168.529	0.398484
58.5216	4.11315	0.00943626	168.354	0.386231
59.0605	4.11113	0.00725835	168.271	0.297088
59.505	4.11195	0.00956883	168.304	0.391657
60.0056	4.11746	0.00810511	168.53	0.331746
60.5092	4.10915	0.00956675	168.19	0.391572
61.00634	4.10946	0.00746546	168.202	0.305565
61.5008	4.11267	0.00976288	168.334	0.3996
62.3554	4.11069	0.00896451	168.252	0.366922
62.5257	4.12215	0.00725032	168.722	0.296759
63.0414	4.11694	0.0085938	168.509	0.351748
63.5196	4.10971	0.0079888	168.213	0.326986
64.0125	4.10665	0.00810936	168.087	0.33192
64.5255	4.10974	0.00681286	168.214	0.278854
65.0183	4.11602	0.00740029	168.471	0.302898
65.5418	4.10482	0.00766567	168.012	0.31376
66.0462	4.09921	0.00640586	167.783	0.262195
66.5248	4.10579	0.00873849	168.052	0.357671
67.0768	4.11345	0.0079577	168.366	0.325713
67.5582	4.10494	0.00797884	168.017	0.326578
68.004	4.10477	0.00743893	168.01	0.304479
68.5724	4.10671	0.00896964	168.09	0.367132
69.0618	4.11011	0.00762683	168.229	0.31217
69.5428	4.10137	0.00848261	167.871	0.347197
70.0581	4.10682	0.0103336	168.094	0.422961
70.5648	4.09627	0.00863982	167.663	0.353632
71.0137	4.11002	0.00731155	168.225	0.299266
71.5299	4.10571	0.00734485	168.049	0.300628
72.7378	4.10534	0.00760769	168.034	0.311387
73.0516	4.103	0.00904914	167.938	0.370386
73.5532	4.09412	0.00956581	167.574	0.391533
74.0546	4.0963	0.00822547	167.664	0.336673
74.5604	4.10226	0.00737447	167.908	0.301841
75.0036	4.10134	0.00861707	167.87	0.352701
75.5546	4.09817	0.00834896	167.74	0.341727
76.0085	4.0939	0.00967916	167.565	0.396173
76.5046	4.09451	0.00814064	167.591	0.3332
77.0126	4.09153	0.00905285	167.468	0.370538
77.5098	4.08806	0.0092838	167.327	0.379991
78.027	4.09183	0.00842639	167.481	0.344897
78.522	4.09041	0.00907813	167.423	0.371573
79.0703	4.09533	0.00867743	167.624	0.355171
79.5648	4.0908	0.00814859	167.439	0.333526
80.037	4.08644	0.00914088	167.26	0.374141
80.6088	4.08783	0.0064236	167.317	0.262921
81.0706	4.09333	0.00737704	167.542	0.301946
81.5807	4.08657	0.00713335	167.266	0.291972
82.0258	4.09106	0.00723551	167.449	0.296153
83.3097	4.09322	0.00870606	167.537	0.356344
83.5339	4.0959	0.00886589	167.647	0.362885
84.0886	4.07699	0.00824276	166.873	0.33738
84.5592	4.08554	0.00755738	167.223	0.309327
85.0418	4.09634	0.0085736	167.665	0.350922
85.5235	4.09256	0.00863193	167.511	0.353309
86.0149	4.08284	0.0094916	167.113	0.388496
86.5263	4.09564	0.00822509	167.637	0.336657
87.0082	4.0898	0.0078681	167.398	0.322045
87.5772	4.08158	0.00816304	167.061	0.334118
88.0863	4.08164	0.00678939	167.063	0.277893
88.5657	4.08859	0.00808099	167.348	0.330759
89.0778	4.08469	0.0070821	167.189	0.289874
89.5694	4.08619	0.00803687	167.25	0.328953
90.0471	4.08428	0.00793077	167.172	0.324611
90.52742	4.08509	0.00788025	167.205	0.322543
91.0306	4.07934	0.00902136	166.969	0.369249
91.5146	4.08123	0.00816669	167.047	0.334267
92.0137	4.07675	0.00759041	166.863	0.310679
92.5092	4.08379	0.00742837	167.152	0.304047
93.7197	4.07526	0.00858392	166.803	0.351344
94.0466	4.08508	0.00766951	167.204	0.313917
94.5577	4.07851	0.00818866	166.935	0.335166
95.0578	4.08004	0.00783831	166.998	0.320826
95.5374	4.06983	0.00791205	166.58	0.323844
96.031	4.07888	0.00815417	166.951	0.333754
96.5118	4.08099	0.00743019	167.037	0.304122
97.0617	4.07842	0.00838329	166.932	0.343132
97.5731	4.07053	0.00852018	166.609	0.348736
98.0673	4.07183	0.00848574	166.662	0.347326
98.5125	4.0656	0.0104266	166.407	0.426766
99.0609	4.0792	0.00762217	166.964	0.311979
99.5504	4.07314	0.00791846	166.716	0.324107
100.009	4.07389	0.00770379	166.747	0.31532
100.527	4.069	0.00761396	166.546	0.311643
101.024	4.07447	0.00826993	166.77	0.338493
101.511	4.07231	0.00833664	166.682	0.341223
102.023	4.06825	0.00860256	166.516	0.352107
102.532	4.07567	0.0073651	166.819	0.301457
103.024	4.06889	0.00930778	166.542	0.380972
103.966	4.07225	0.00716715	166.679	0.293355
104.025	4.06844	0.00913014	166.523	0.373701
104.525	4.08063	0.00788156	167.022	0.322596
105.078	4.06988	0.00757325	166.582	0.309977
105.553	4.06388	0.00639054	166.337	0.261568
106.042	4.06314	0.00726451	166.306	0.29734
106.536	4.06223	0.00859028	166.269	0.351605
107.025	4.06589	0.00831831	166.419	0.340473
107.543	4.06247	0.00832428	166.279	0.340717
108.056	4.07458	0.00824252	166.775	0.337371
108.508	4.06276	0.00963685	166.291	0.394441
109.002	4.06794	0.00819317	166.503	0.335351
109.503	4.06229	0.00930139	166.271	0.380711
110.054	4.07319	0.00762257	166.718	0.311996
110.526	4.07258	0.00901831	166.693	0.369124
111.031	4.06253	0.00814945	166.281	0.333561
111.512	4.0748	0.00892714	166.784	0.365392
112.053	4.07189	0.00930919	166.664	0.38103
112.532	4.06251	0.00753504	166.281	0.308413
113.018	4.0587	0.00881967	166.125	0.360994
113.519	4.06541	0.00742866	166.4	0.304059
114.368	4.06604	0.00838679	166.425	0.343275
114.554	4.06612	0.00820969	166.428	0.336027
115.041	4.06621	0.00857805	166.432	0.351104
115.508	4.06385	0.00853064	166.335	0.349164
116.031	4.06945	0.00876399	166.565	0.358714
116.563	4.0643	0.0083381	166.354	0.341283
117.036	4.06118	0.0081594	166.226	0.333969
117.539	4.06038	0.00776921	166.194	0.317998
118.037	4.05339	0.00868086	165.907	0.355312