File: data/monolayers/nanoparticles/Ol_CoFe_C/vsm/Backup/rescale/DD67_300K_LangevinSAXSscaled.xye
#Executed at: 2018-11-13 00:54:13.4953
#Loaded File	 = ../rawdata/DD172_6_HYST_300K.DAT
#Rescale Factor	 = 0.0244316
#[[Data]]
#B/T	M/kAm-1	sM/kAm-1	M_raw/memu	sM_raw/memu
1.2179e-05	-0.317632	0.0107017	-13.0009	0.438027
0.211585	22.3021	0.0130356	912.835	0.533554
0.433699	33.5238	0.0120115	1372.15	0.491635
0.654138	41.6712	0.0142742	1705.62	0.584252
0.874006	48.328	0.0174515	1978.09	0.7143
1.0952	54.0373	0.0210462	2211.77	0.861431
1.32391	59.2174	0.0287242	2423.8	1.1757
1.54762	63.709	0.0258299	2607.64	1.05723
1.77033	67.6985	0.0293154	2770.93	1.1999
1.9891	71.2386	0.0337203	2915.83	1.38019
2.20369	74.47	0.0421224	3048.09	1.72409
2.43136	77.6525	0.0275205	3178.36	1.12643
2.66126	80.6351	0.0408671	3300.44	1.67271
2.89215	83.4815	0.0471402	3416.94	1.92947
3.12295	86.0814	0.048072	3523.36	1.96761
3.34803	88.5491	0.0435081	3624.36	1.78081
3.57742	90.8264	0.0531393	3717.57	2.17502
3.812175	93.0933	0.0557523	3810.36	2.28197
4.04144	95.2236	0.0569073	3897.55	2.32924
4.28004	97.347	0.0579756	3984.46	2.37297
4.51173	99.2961	0.0568752	4064.24	2.32793
4.73647	101.127	0.0671647	4139.2	2.74909
4.96374	102.857	0.0611545	4209.98	2.50308
5.20248	104.631	0.08382	4282.62	3.4308
5.42861	106.298	0.0531272	4350.82	2.17452
5.65613	107.854	0.0780625	4414.51	3.19514
5.88916	109.445	0.0652798	4479.63	2.67194
6.13524	111.06	0.0744835	4545.73	3.04865
6.37356	112.547	0.0879715	4606.6	3.60072
6.60568	113.968	0.0891535	4664.78	3.6491
6.8448	115.373	0.0928311	4722.27	3.79963
7.08618	116.694	0.0870225	4776.33	3.56188
7.32422	118.032	0.103474	4831.12	4.23526
7.56306	119.349	0.0987846	4885.02	4.04331
7.79728	120.589	0.109491	4935.78	4.48151
8.02957	121.83	0.100167	4986.58	4.09988
8.25948	123.011	0.105982	5034.92	4.3379
8.48936	124.105	0.106845	5079.67	4.37324
8.71279	125.165	0.131925	5123.07	5.39974
8.93506	126.223	0.118877	5166.39	4.8657
8.8521	125.838	0.0970497	5150.63	3.97229
8.62798	124.819	0.0986913	5108.92	4.03948
8.41312	123.766	0.10616	5065.81	4.34518
8.17986	122.647	0.114897	5020.01	4.7028
7.9475	121.424	0.0978374	4969.96	4.00454
7.71523	120.283	0.087161	4923.25	3.56755
7.48725	119.03	0.0956072	4871.97	3.91325
7.25736	117.717	0.0948852	4818.21	3.8837
7.02393	116.406	0.080607	4764.54	3.29929
6.79195	115.116	0.0771132	4711.75	3.15628
6.56666	113.718	0.0889726	4654.55	3.6417
6.32868	112.302	0.0948332	4596.56	3.88157
6.09323	110.783	0.0734244	4534.41	3.0053
5.85389	109.259	0.0858006	4472.03	3.51186
5.61794	107.639	0.0710081	4405.71	2.9064
5.38808	105.942	0.0714993	4336.26	2.9265
5.15483	104.323	0.0743482	4269.99	3.04311
4.91622	102.551	0.0512048	4197.48	2.09584
4.67882	100.672	0.0570867	4120.55	2.33659
4.45027	98.7922	0.0645965	4043.62	2.64397
4.22244	96.8707	0.0447191	3964.97	1.83037
4.00042	94.8475	0.0623405	3882.16	2.55163
3.76641	92.7351	0.0448527	3795.7	1.83585
3.52643	90.3879	0.049502	3699.62	2.02614
3.29058	87.9355	0.0482062	3599.24	1.97311
3.06018	85.4523	0.0497536	3497.61	2.03644
2.82431	82.6992	0.0338654	3384.92	1.38613
2.59403	79.8601	0.0420916	3268.72	1.72283
2.36152	76.7965	0.0359315	3143.32	1.4707
2.1305	73.455	0.0322088	3006.55	1.31832
1.89481	69.8172	0.0251395	2857.65	1.02897
1.66932	65.9843	0.0267536	2700.77	1.09504
1.44646	61.781	0.025316	2528.73	1.0362
1.22207	57.1258	0.0222228	2338.19	0.909589
0.994354	51.6302	0.0173402	2113.25	0.709742
0.775779	45.6022	0.01739	1866.52	0.711784
0.551289	38.1902	0.0156486	1563.14	0.640503
0.325355	28.8005	0.0120589	1178.82	0.493579
0.105091	14.3515	0.0152047	587.413	0.622335
-0.106975	-14.7051	0.0149716	-601.886	0.612794
-0.323926	-28.6912	0.0122961	-1174.35	0.503287
-0.546164	-37.8704	0.0162613	-1550.06	0.665585
-0.769323	-45.3551	0.0144906	-1856.41	0.593107
-0.990638	-51.5309	0.0144081	-2109.18	0.589733
-1.22086	-57.0234	0.0186376	-2334	0.762846
-1.44189	-61.6457	0.0199723	-2523.19	0.817475
-1.66852	-65.9006	0.0259078	-2697.34	1.06042
-1.9005	-69.8272	0.0287459	-2858.06	1.17658
-2.13674	-73.5151	0.0323332	-3009.01	1.32341
-2.36537	-76.7597	0.0348789	-3141.81	1.42761
-2.59921	-79.8554	0.0318025	-3268.52	1.30169
-2.83541	-82.724	0.0326161	-3385.94	1.33499
-3.06547	-85.44	0.0374303	-3497.1	1.53204
-3.3024	-87.9941	0.0474256	-3601.65	1.94116
-3.54346	-90.4478	0.0372286	-3702.07	1.52379
-3.78859	-92.8327	0.0554903	-3799.69	2.27125
-4.02972	-95.0269	0.0533243	-3889.5	2.18259
-4.26882	-97.1964	0.0517342	-3978.3	2.11751
-4.50761	-99.1995	0.0611751	-4060.29	2.50393
-4.74286	-101.091	0.0629524	-4137.7	2.57667
-4.98474	-102.944	0.0499525	-4213.55	2.04458
-5.2152	-104.679	0.0564003	-4284.58	2.3085
-5.4624	-106.452	0.0579056	-4357.14	2.37011
-5.70451	-108.085	0.080065	-4423.97	3.2771
-5.94751	-109.785	0.0724988	-4493.56	2.96741
-6.18249	-111.274	0.0835894	-4554.49	3.42136
-6.41889	-112.71	0.0887223	-4613.27	3.63145
-6.66272	-114.171	0.0700522	-4673.06	2.86727
-6.9015	-115.628	0.075072	-4732.72	3.07274
-7.14446	-116.988	0.0733641	-4788.4	3.00283
-7.38177	-118.285	0.0969507	-4841.46	3.96824
-7.6154	-119.546	0.101018	-4893.09	4.13473
-7.85448	-120.808	0.0861878	-4944.74	3.52771
-8.09542	-122.106	0.0567398	-4997.86	2.32239
-8.33297	-123.223	0.0994626	-5043.57	4.07106
-8.56312	-124.325	0.101409	-5088.69	4.15074
-8.79193	-125.445	0.132044	-5134.54	5.40464
-8.98067	-126.326	0.119432	-5170.6	4.88843
-8.74974	-125.265	0.0831377	-5127.17	3.40287
-8.52013	-124.104	0.127325	-5079.65	5.21149
-8.287	-123.028	0.106933	-5035.61	4.37682
-8.03883	-121.791	0.0733539	-4984.99	3.00241
-7.79277	-120.505	0.101677	-4932.33	4.16168
-7.55029	-119.226	0.0795731	-4880	3.25697
-7.30407	-117.933	0.101152	-4827.04	4.14022
-7.05882	-116.478	0.080126	-4767.52	3.2796
-6.81525	-115.117	0.0793118	-4711.81	3.24627
-6.56817	-113.654	0.0957239	-4651.92	3.91803
-6.32546	-112.149	0.0800529	-4590.33	3.27661
-6.08629	-110.664	0.0637593	-4529.55	2.6097
-5.84808	-109.104	0.0560595	-4465.66	2.29454
-5.60083	-107.417	0.0787686	-4396.65	3.22404
-5.35822	-105.734	0.0694923	-4327.76	2.84436
-5.1234	-103.997	0.0603788	-4256.67	2.47133
-4.88052	-102.176	0.0729157	-4182.1	2.98448
-4.63529	-100.228	0.064194	-4102.39	2.62749
-4.39002	-98.2306	0.0563616	-4020.63	2.30691
-4.14819	-96.1328	0.0638016	-3934.77	2.61143
-3.91038	-94.0248	0.0550276	-3848.48	2.25231
-3.67409	-91.7756	0.0486042	-3756.42	1.9894
-3.43385	-89.4068	0.0398325	-3659.47	1.63037
-3.19363	-86.8233	0.0511415	-3553.72	2.09325
-2.956	-84.1647	0.0270951	-3444.9	1.10902
-2.71129	-81.2658	0.028477	-3326.25	1.16558
-2.47738	-78.3169	0.0402178	-3205.55	1.64613
-2.23728	-74.9743	0.0364409	-3068.74	1.49154
-1.99892	-71.4578	0.0278294	-2924.8	1.13907
-1.76488	-67.6034	0.0375362	-2767.04	1.53637
-1.5283	-63.3895	0.0292047	-2594.56	1.19536
-1.28915	-58.5424	0.0226712	-2396.17	0.927945
-1.0529	-53.0916	0.0138282	-2173.07	0.565996
-0.825325	-47.0307	0.0183032	-1924.99	0.749159
-0.597082	-39.828	0.0146188	-1630.18	0.598353
-0.367429	-30.7333	0.0116038	-1257.93	0.474949
-0.14312	-17.7703	0.0119884	-727.347	0.490691
0.0780174	11.6844	0.0182305	478.249	0.746184
0.298398	27.3655	0.0131075	1120.08	0.536497
0.525434	37.1853	0.0145509	1522.02	0.595576
0.7546375	44.9237	0.0236318	1838.75	0.96726
0.985112	51.3612	0.017277	2102.24	0.707158
1.21983	56.9617	0.0221086	2331.47	0.904917
1.44949	61.7866	0.0262387	2528.96	1.07397
1.68732	66.2388	0.0360832	2711.19	1.47691
1.93009	70.3057	0.0195979	2877.65	0.802153
2.16866	73.9559	0.0445921	3027.05	1.82518
2.40532	77.2822	0.0399014	3163.2	1.63319
2.65028	80.4878	0.0434269	3294.41	1.77749
2.89162	83.4044	0.0413241	3413.78	1.69142
3.12827	86.1109	0.0396036	3524.56	1.621
3.36611	88.651	0.0577845	3628.53	2.36515
3.61001	91.0975	0.058276	3728.67	2.38527
3.84819	93.4137	0.0582708	3823.47	2.38505
4.07664	95.4573	0.0569055	3907.12	2.32917
4.31574	97.5929	0.049449	3994.53	2.02397
4.5453	99.4713	0.0527877	4071.41	2.16063
4.78093	101.37	0.0549941	4149.11	2.25094
5.00981	103.174	0.057382	4222.96	2.34867
5.24765	104.883	0.0520816	4292.92	2.13173
5.48153	106.562	0.0781667	4361.66	3.19941
5.71239	108.148	0.0664288	4426.57	2.71897
5.94727	109.71	0.0507436	4490.51	2.07696
6.18793	111.294	0.0730989	4555.3	2.99198
6.42147	112.747	0.0871686	4614.8	3.56786
6.65686	114.187	0.0872527	4673.74	3.5713
6.89464	115.608	0.100028	4731.89	4.09422
7.13401	116.934	0.0782879	4786.17	3.20436
7.37614	118.24	0.101886	4839.63	4.17025
7.61592	119.589	0.0889535	4894.84	3.64091
7.84607	120.805	0.103093	4944.61	4.21965
8.08578	122.017	0.106442	4994.21	4.35673
8.32167	123.243	0.0960156	5044.4	3.92997
8.5546	124.249	0.118125	5085.56	4.8349
8.77298	125.296	0.100434	5128.44	4.11082
8.99998	126.448	0.109801	5175.59	4.49422
8.78557	125.456	0.10764	5134.98	4.40576
8.55879	124.358	0.11193	5090.02	4.58135
8.33444	123.288	0.0966466	5046.26	3.9558
8.09904	122.101	0.102318	4997.67	4.18792
7.8582	120.827	0.115981	4945.5	4.74716
7.60881	119.514	0.0806514	4891.77	3.3011
7.36408	118.259	0.08519	4840.39	3.48687
7.12316	116.886	0.096042	4784.22	3.93105
6.87819	115.473	0.0745473	4726.36	3.05126
6.63417	114.075	0.0822785	4669.16	3.3677
6.39432	112.627	0.0738265	4609.87	3.02176
6.15008	111.093	0.0635181	4547.08	2.59983
5.90303	109.416	0.0852628	4478.44	3.48985
5.65935	107.854	0.0826131	4414.5	3.3814
5.40836	106.009	0.0598076	4339.02	2.44795
5.1695	104.399	0.0580273	4273.12	2.37509
4.91812	102.491	0.0494253	4195.01	2.023
4.67223	100.512	0.06102	4113.99	2.49758
4.42656	98.5616	0.0591247	4034.18	2.42
4.18463	96.4335	0.0471147	3947.07	1.92843
3.94822	94.3547	0.0511347	3861.99	2.09297
3.70575	92.0984	0.0580988	3769.64	2.37801
3.46424	89.7086	0.0428431	3671.82	1.75359
3.22768	87.2156	0.0432767	3569.78	1.77134
2.97829	84.4471	0.0391234	3456.46	1.60134
2.73568	81.6024	0.0334785	3340.03	1.37029
2.49364	78.5066	0.0282876	3213.31	1.15782
2.25769	75.3069	0.0300115	3082.35	1.22838
2.01941	71.7674	0.0321912	2937.48	1.3176
1.78657	68.0177	0.0284637	2784	1.16503
1.5437	63.6392	0.0268255	2604.78	1.09798
1.30433	58.8776	0.0200403	2409.89	0.82026
1.07046	53.542	0.0188699	2191.5	0.772357
0.834295	47.3359	0.0200248	1937.48	0.819624
0.60406	40.0503	0.0156448	1639.28	0.640351
0.372727	30.9868	0.0145256	1268.3	0.59454
0.148367	18.2071	0.0112748	745.225	0.461482
-3.19699e-05	-0.0966088	0.0150094	-3.95425	0.614344