File: data/monolayers/nanoparticles/Ol_CoFe_C/vsm/Backup/rescale/DD67_10K_LangevinSAXSscaled.xye
#Executed at: 2018-11-13 00:54:13.8946
#Loaded File	 = ../rawdata/DD172_6_HYST_10K.DAT
#Rescale Factor	 = 0.0244316
#[[Data]]
#B/T	M/kAm-1	sM/kAm-1	M_raw/memu	sM_raw/memu
-4.11042e-05	-0.520326	0.00918752	-21.2972	0.37605
0.256674	3.14209	0.00796334	128.607	0.325944
0.511725	6.8715	0.00782822	281.254	0.320413
0.763753	10.7655	0.00926953	440.636	0.379407
1.02144	14.96	0.00882033	612.321	0.36102
1.27629	19.3887	0.0107349	793.589	0.439383
1.50916	23.6797	0.0113848	969.221	0.465987
1.73667	28.1683	0.0105969	1152.94	0.433736
1.96316	32.9567	0.0125961	1348.94	0.515564
2.18965	38.0323	0.0103259	1556.68	0.422643
2.41868	43.4309	0.0133655	1777.65	0.547057
2.65291	49.2073	0.0143432	2014.08	0.587073
2.88285	54.985	0.0178016	2250.57	0.728627
3.13422	61.3533	0.0176101	2511.22	0.720789
3.38109	67.6068	0.0116312	2767.18	0.476072
3.62757	73.6286	0.0246672	3013.66	1.00964
3.88053	79.5545	0.0170585	3256.21	0.698211
4.12555	84.9923	0.0174867	3478.78	0.715738
4.37229	90.1787	0.0225441	3691.06	0.92274
4.6212	95.036	0.0205509	3889.87	0.841157
4.86855	99.5204	0.020331	4073.42	0.832157
5.11995	103.713	0.0243733	4245.04	0.99761
5.37007	107.588	0.0231857	4403.63	0.949003
5.61716	111.089	0.0201007	4546.93	0.822734
5.86795	114.434	0.0210235	4683.86	0.860504
6.11266	117.478	0.0211012	4808.45	0.863681
6.36171	120.318	0.0259849	4924.66	1.06358
6.61295	123.012	0.0244007	5034.93	0.998732
6.86946	125.595	0.023155	5140.66	0.947747
7.11882	127.914	0.0210701	5235.57	0.862412
7.37642	130.198	0.0250114	5329.07	1.02373
7.63677	132.355	0.0222645	5417.37	0.911298
7.89325	134.352	0.0283417	5499.08	1.16004
8.1498	136.334	0.028072	5580.24	1.149
8.41029	138.084	0.0249307	5651.86	1.02043
8.64671	139.725	0.0284431	5719.02	1.16419
8.88522	141.189	0.0281088	5778.94	1.15051
8.87863	141.35	0.0354106	5785.53	1.44938
8.64236	140.044	0.0225099	5732.07	0.921344
8.39989	138.691	0.0317323	5676.68	1.29882
8.13975	137.223	0.0254283	5616.61	1.04079
7.88494	135.735	0.0195821	5555.71	0.801506
7.62529	134.099	0.0226937	5488.74	0.928863
7.36122	132.452	0.0212842	5421.31	0.871174
7.1072	130.779	0.0248429	5352.86	1.01683
6.84384	129.015	0.0219866	5280.63	0.899923
6.58568	127.123	0.0187505	5203.21	0.767466
6.31961	125.218	0.0238428	5125.24	0.9759
6.06054	123.208	0.0273861	5042.98	1.12093
5.80319	121.16	0.0225559	4959.13	0.923224
5.54515	119.019	0.0237812	4871.53	0.973377
5.28741	116.844	0.0265445	4782.49	1.08648
5.02771	114.444	0.0172607	4684.27	0.70649
4.76634	112.022	0.0201143	4585.11	0.823289
4.51647	109.549	0.0157426	4483.88	0.644355
4.2692	106.966	0.0224656	4378.19	0.91953
4.0216	104.302	0.0190081	4269.14	0.778012
3.77146	101.444	0.0260014	4152.15	1.06425
3.52522	98.5093	0.0187228	4032.04	0.766335
3.27412	95.324	0.014864	3901.66	0.608391
3.02237	91.9769	0.0172349	3764.66	0.705433
2.77181	88.4879	0.0158872	3621.86	0.650272
2.51964	84.7719	0.012654	3469.76	0.517934
2.27055	80.895	0.0152178	3311.07	0.622872
2.02338	76.7867	0.0126113	3142.92	0.516186
1.77032	72.4083	0.0115628	2963.71	0.473272
1.52396	67.8535	0.0123074	2777.28	0.503748
1.28232	63.1716	0.0138234	2585.65	0.565801
1.03783	58.2624	0.0107193	2384.71	0.438744
0.792315	53.0616	0.0102896	2171.84	0.421159
0.545836	47.5482	0.0101838	1946.17	0.416828
0.298197	41.8011	0.00922513	1710.94	0.377589
0.0510392	35.823	0.0110864	1466.26	0.453774
-0.183267	29.9025	0.00780048	1223.93	0.319278
-0.428521	23.5288	0.00838208	963.046	0.343083
-0.678687	16.903	0.00973402	691.85	0.398419
-0.927128	10.1497	0.00925572	415.433	0.378841
-1.17846	3.04535	0.0110778	124.648	0.45342
-1.42699	-4.14168	0.00996024	-169.521	0.407678
-1.67578	-11.595	0.00956421	-474.591	0.391468
-1.92208	-19.1745	0.0121035	-784.824	0.495403
-2.16544	-26.7336	0.011798	-1094.22	0.482897
-2.41292	-34.5249	0.0137635	-1413.12	0.563345
-2.65814	-42.2343	0.0121803	-1728.67	0.498545
-2.89006	-49.4489	0.0158535	-2023.97	0.648891
-3.12256	-56.429	0.0149001	-2309.67	0.609867
-3.35354	-63.1203	0.014924	-2583.55	0.610847
-3.57964	-69.3202	0.0152639	-2837.31	0.62476
-3.80463	-75.1162	0.0160161	-3074.54	0.655548
-4.02791	-80.5732	0.0165732	-3297.9	0.67835
-4.25326	-85.6108	0.0175524	-3504.09	0.718431
-4.4802	-90.3402	0.0175952	-3697.67	0.720182
-4.7033	-94.6778	0.0190936	-3875.21	0.781511
-4.93169	-98.7943	0.0168672	-4043.7	0.690385
-5.16402	-102.603	0.0170013	-4199.61	0.695872
-5.39689	-106.16	0.0158719	-4345.17	0.649643
-5.62701	-109.464	0.0183298	-4480.4	0.750249
-5.86375	-112.57	0.0223981	-4607.55	0.916764
-6.0906	-115.325	0.0228169	-4720.32	0.933909
-6.33065	-118.102	0.0237649	-4833.96	0.972708
-6.56037	-120.552	0.0214987	-4934.26	0.879955
-6.79027	-122.867	0.0250483	-5029	1.02524
-7.02592	-125.1	0.0175919	-5120.42	0.720044
-7.26517	-127.257	0.0232923	-5208.68	0.953365
-7.5105	-129.309	0.0270416	-5292.7	1.10682
-7.76623	-131.36	0.0219876	-5376.65	0.899962
-8.02294	-133.301	0.0224984	-5456.07	0.920872
-8.28256	-135.153	0.0212022	-5531.87	0.867816
-8.53081	-136.838	0.0278269	-5600.86	1.13897
-8.77313	-138.379	0.024434	-5663.91	1.0001
-8.98802	-139.804	0.0263879	-5722.24	1.08007
-8.74749	-138.629	0.0291824	-5674.16	1.19445
-8.50192	-137.371	0.0244529	-5622.68	1.00087
-8.24794	-136.057	0.0242229	-5568.87	0.991457
-7.98966	-134.622	0.0239505	-5510.16	0.980308
-7.72844	-133.163	0.0195296	-5450.42	0.799357
-7.46736	-131.606	0.0207616	-5386.71	0.849782
-7.21393	-130.042	0.0277158	-5322.69	1.13442
-6.98305	-128.628	0.0307401	-5264.82	1.25821
-6.7525	-127.09	0.0205629	-5201.85	0.84165
-6.51885	-125.536	0.024722	-5138.25	1.01188
-6.28862	-123.943	0.0334289	-5073.05	1.36826
-6.04761	-122.166	0.0190813	-5000.32	0.781007
-5.81525	-120.463	0.0215768	-4930.62	0.883151
-5.5872	-118.686	0.0174653	-4857.88	0.714863
-5.34964	-116.767	0.0205845	-4779.34	0.842534
-5.11195	-114.783	0.0194446	-4698.11	0.795878
-4.87419	-112.69	0.0193028	-4612.45	0.790073
-4.63819	-110.531	0.0202267	-4524.08	0.827889
-4.4023	-108.269	0.0139643	-4431.5	0.571565
-4.16986	-105.894	0.0180812	-4334.31	0.740073
-3.94944	-103.592	0.017516	-4240.07	0.716941
-3.71858	-101.088	0.0179972	-4137.58	0.736634
-3.49133	-98.4215	0.0182387	-4028.44	0.746519
-3.26001	-95.6172	0.0157004	-3913.66	0.642624
-3.03232	-92.7275	0.0222256	-3795.38	0.909705
-2.80139	-89.6228	0.0131488	-3668.31	0.538187
-2.56887	-86.3445	0.0119788	-3534.12	0.4903
-2.33702	-82.8759	0.0124932	-3392.15	0.511354
-2.11065	-79.3524	0.0120534	-3247.93	0.49335
-1.8809	-75.5647	0.0131142	-3092.9	0.536772
-1.65144	-71.5557	0.0130362	-2928.81	0.533578
-1.42793	-67.4441	0.0102082	-2760.52	0.417826
-1.19989	-63.0559	0.0102488	-2580.91	0.41949
-0.972865	-58.4354	0.00923042	-2391.79	0.377806
-0.754456	-53.8064	0.0104523	-2202.33	0.427816
-0.532694	-48.8246	0.0104622	-1998.41	0.428222
-0.308113	-43.5501	0.00846984	-1782.53	0.346675
-0.0822008	-37.9516	0.00747727	-1553.38	0.306049
0.141453	-32.1722	0.00884482	-1316.83	0.362023
0.361936	-26.2141	0.00810101	-1072.96	0.331579
0.581165	-20.1752	0.0087604	-825.781	0.358568
0.809165	-13.5525	0.0101751	-554.711	0.416472
1.02739	-7.04296	0.0091725	-288.272	0.375435
1.25202	-0.0884907	0.0104487	-3.62197	0.427671
1.47862	7.19341	0.0113955	294.43	0.466423
1.70564	14.659	0.0126207	600.002	0.516572
1.92552	21.9848	0.0109458	899.85	0.448016
2.1479	29.464	0.014905	1205.98	0.610069
2.37445	36.9884	0.0144413	1513.95	0.591088
2.59654	44.2976	0.0138904	1813.13	0.568542
2.81899	51.4276	0.0123203	2104.96	0.504275
3.03991	58.1469	0.0181859	2379.98	0.744359
3.26488	64.6322	0.0173845	2645.43	0.711556
3.48952	70.7174	0.0191466	2894.5	0.78368
3.71466	76.3692	0.0165183	3125.83	0.676103
3.93899	81.6256	0.019405	3340.98	0.794259
4.16091	86.4431	0.0161232	3538.16	0.659932
4.38416	90.8833	0.0206482	3719.9	0.845141
4.60834	95.0457	0.018258	3890.27	0.747309
4.83034	98.8425	0.0171999	4045.68	0.704
5.05423	102.371	0.0235796	4190.12	0.965125
5.27634	105.647	0.0179436	4324.19	0.73444
5.51033	108.808	0.0222543	4453.56	0.910879
5.73835	111.733	0.0180877	4573.27	0.740341
5.96201	114.356	0.0268551	4680.65	1.09919
6.1885	116.911	0.0194352	4785.25	0.795492
6.4157	119.328	0.0229055	4884.16	0.937532
6.64444	121.56	0.0220791	4975.52	0.903709
6.87047	123.694	0.0246185	5062.87	1.00765
7.09586	125.652	0.0236207	5143.01	0.966809
7.32155	127.55	0.0241196	5220.67	0.987228
7.55362	129.445	0.0295582	5298.25	1.20983
7.78017	131.169	0.0208042	5368.83	0.851527
8.00408	132.772	0.0192076	5434.42	0.786175
8.22744	134.324	0.0263164	5497.93	1.07714
8.45693	135.886	0.0367226	5561.89	1.50308
8.66803	137.288	0.0313804	5619.29	1.28442
8.87675	138.604	0.0268158	5673.15	1.09759
8.91859	139.029	0.0321156	5690.52	1.31451
8.71204	137.998	0.0273027	5648.34	1.11751
8.49952	136.952	0.0295608	5605.5	1.20994
8.27658	135.766	0.0226873	5556.96	0.928601
8.05117	134.478	0.0273259	5504.25	1.11846
7.82003	133.262	0.0251343	5454.49	1.02876
7.58713	131.94	0.0220238	5400.35	0.901445
7.35944	130.586	0.0314867	5344.97	1.28877
7.12778	129.175	0.0272474	5287.21	1.11525
6.8923	127.669	0.0263418	5225.54	1.07818
6.65813	126.135	0.0185194	5162.77	0.758007
6.42239	124.559	0.0195821	5098.27	0.801506
6.18465	122.896	0.0250416	5030.2	1.02497
5.9517	121.173	0.0203472	4959.68	0.832822
5.72141	119.438	0.0260468	4888.65	1.06611
5.49067	117.636	0.0245626	4814.9	1.00536
5.26365	115.763	0.0271144	4738.22	1.10981
5.0348	113.811	0.0189277	4658.34	0.774719
4.80465	111.798	0.021064	4575.94	0.86216
4.56789	109.596	0.020045	4485.81	0.820452
4.33861	107.376	0.0198752	4394.94	0.813503
4.11015	105.09	0.0190561	4301.4	0.779978
3.882	102.653	0.0188505	4201.65	0.771562
3.65468	100.131	0.0197452	4098.41	0.808183
3.42887	97.5245	0.0183553	3991.73	0.751293
3.208	94.8404	0.0172758	3881.87	0.707108
2.98351	91.9666	0.0126787	3764.24	0.518946
2.75701	88.9231	0.0173818	3639.67	0.711445
2.53709	85.8015	0.0163209	3511.9	0.668021
2.31163	82.4305	0.01066	3373.92	0.436318
2.08846	78.937	0.0140046	3230.93	0.573217
1.86324	75.2263	0.0124119	3079.05	0.508026
1.64624	71.4543	0.0124019	2924.66	0.507617
1.42611	67.4403	0.0130719	2760.37	0.535038
1.2056	63.2147	0.0130235	2587.41	0.53306
0.985854	58.7419	0.0109181	2404.34	0.446884
0.768797	54.1332	0.0109326	2215.7	0.447477
0.549965	49.2978	0.0117493	2017.79	0.480903
0.331133	44.1457	0.008871	1806.9	0.363095
0.111861	38.8331	0.0105428	1589.46	0.431522
-2.66416e-05	35.924	0.00869523	1470.39	0.3559