File: data/monolayers/nanoparticles/Ol_CoFe_C/vsm/Backup/ZFCFC/DD67_FCw_LangevinSAXSscaled.xye
#Executed at: 2018-11-12 10:16:50.9211
#Loaded File	 = ./DD172_6_FCW_100OE.DAT
#Rescale Factor	 = 0.0572735
#[[Data]]
#T/K	M/kAm-1	sM/kAm-1	M_raw/memu	sM_raw/memu
10.0052	9.74316	2.00231e-05	170.116	0.000349604
11.5288	9.71804	1.72853e-05	169.678	0.000301802
13.5039	9.71605	1.83982e-05	169.643	0.000321235
15.5324	9.7505	2.06903e-05	170.244	0.000361254
17.5182	9.72012	1.87783e-05	169.714	0.00032787
19.5058	9.71368	2.24182e-05	169.602	0.000391424
22.0174	9.72899	1.78011e-05	169.869	0.000310808
24.0463	9.71445	1.65385e-05	169.615	0.000288763
26.0532	9.72007	1.83045e-05	169.713	0.000319598
28.049	9.71645	2.01702e-05	169.65	0.000352174
30.0032	9.71721	1.54944e-05	169.663	0.000270533
32.5474	9.71392	1.54499e-05	169.606	0.000269756
34.5334	9.70261	1.87673e-05	169.408	0.000327679
36.5343	9.7021	1.98374e-05	169.399	0.000346363
38.5646	9.69721	1.86193e-05	169.314	0.000325094
40.5635	9.68598	1.89397e-05	169.118	0.000330688
43.0209	9.69912	2.03736e-05	169.347	0.000355726
45.0132	9.67665	1.8872e-05	168.955	0.000329506
47.0285	9.67012	2.02067e-05	168.841	0.000352811
49.0357	9.6733	1.75029e-05	168.897	0.000305602
51.0435	9.68947	1.94044e-05	169.179	0.000338802
53.051	9.65851	2.0102e-05	168.638	0.000350983
55.0104	9.639	2.01113e-05	168.298	0.000351144
57.0257	9.65244	1.86875e-05	168.532	0.000326284
59.0605	9.63744	1.70153e-05	168.271	0.000297088
61.00634	9.63353	1.75008e-05	168.202	0.000305565
63.0414	9.65108	2.01459e-05	168.509	0.000351748
65.0183	9.64892	1.7348e-05	168.471	0.000302898
67.0768	9.6429	1.86547e-05	168.366	0.000325713
69.0618	9.63505	1.78791e-05	168.229	0.00031217
71.0137	9.63485	1.714e-05	168.225	0.000299266
73.5532	9.59757	2.24245e-05	167.574	0.000391533
75.5546	9.60707	1.95719e-05	167.74	0.000341727
77.5098	9.58338	2.17634e-05	167.327	0.000379991
79.5648	9.58979	1.91022e-05	167.439	0.000333526
81.5807	9.57988	1.67222e-05	167.266	0.000291972
84.0886	9.55741	1.9323e-05	166.873	0.00033738
86.0149	9.57112	2.22505e-05	167.113	0.000388496
88.0863	9.56831	1.59159e-05	167.063	0.000277893
90.0471	9.57451	1.85916e-05	167.172	0.000324611
92.0137	9.55685	1.77937e-05	166.863	0.000310679
94.5577	9.56098	1.91961e-05	166.935	0.000335166
96.5118	9.56679	1.74181e-05	167.037	0.000304122
98.5125	9.53072	2.44424e-05	166.407	0.000426766
100.527	9.53869	1.78489e-05	166.546	0.000311643
102.532	9.55432	1.72655e-05	166.819	0.000301457
104.525	9.56594	1.84762e-05	167.022	0.000322596
106.536	9.52283	2.01376e-05	166.269	0.000351605
108.508	9.52405	2.2591e-05	166.291	0.000394441
110.526	9.54709	2.1141e-05	166.693	0.000369124
112.532	9.52348	1.76639e-05	166.281	0.000308413
114.554	9.53194	1.92454e-05	166.428	0.000336027
116.563	9.52767	1.95465e-05	166.354	0.000341283
118.518	9.53013	1.89636e-05	166.397	0.000331105
120.504	9.52929	1.76957e-05	166.382	0.000308967
122.564	9.53861	1.8797e-05	166.545	0.000328197
124.811	9.51751	2.16824e-05	166.176	0.000378576
126.545	9.51299	1.94511e-05	166.098	0.000339618
128.532	9.50798	1.76731e-05	166.01	0.000308574
130.542	9.53443	1.78115e-05	166.472	0.000310991
132.544	9.52753	2.31976e-05	166.351	0.000405032
135.217	9.52295	1.84517e-05	166.271	0.000322169
137.016	9.52734	1.93641e-05	166.348	0.000338099
139.036	9.51329	1.96593e-05	166.103	0.000343253
141.009	9.5053	2.29719e-05	165.963	0.000401092
143.042	9.48599	1.81052e-05	165.626	0.000316118
145.687	9.50897	1.8761e-05	166.027	0.000327569
147.553	9.50768	1.96393e-05	166.005	0.000342904
149.501	9.50619	1.881e-05	165.979	0.000328424
151.516	9.50293	1.9105e-05	165.922	0.000333575
153.519	9.48596	2.03446e-05	165.626	0.000355219
156.132	9.49253	2.22257e-05	165.74	0.000388063
158.028	9.46654	1.94773e-05	165.286	0.000340075
160.037	9.45584	2.42079e-05	165.1	0.000422671
162.035	9.44355	2.2581e-05	164.885	0.000394266
164.008	9.42626	2.10999e-05	164.583	0.000368406
166.547	9.36644	1.91873e-05	163.539	0.000335012
168.549	9.34297	1.99917e-05	163.129	0.000349057
170.519	9.33205	2.16368e-05	162.938	0.00037778
172.508	9.26871	2.219e-05	161.832	0.000387439
174.505	9.25609	1.78856e-05	161.612	0.000312284
176.948	9.16871	1.97583e-05	160.086	0.000344981
178.534	9.14804	1.98891e-05	159.725	0.000347265
180.559	9.07898	2.02413e-05	158.52	0.000353415
182.52	9.04102	2.09373e-05	157.857	0.000365566
184.511	8.94133	1.94855e-05	156.116	0.000340218
187.357	8.8711	2.0891e-05	154.89	0.000364758
189.025	8.8108	2.52977e-05	153.837	0.000441701
191.016	8.70858	1.82379e-05	152.052	0.000318435
193.018	8.62788	2.14681e-05	150.643	0.000374836
195.018	8.54783	1.96554e-05	149.246	0.000343184
197.724	8.43572	2.32963e-05	147.288	0.000406754
199.53	8.3416	2.08966e-05	145.645	0.000364857
201.512	8.27455	2.16877e-05	144.474	0.000378669
203.531	8.1775	2.17134e-05	142.78	0.000379118
205.557	8.04292	2.23696e-05	140.43	0.000390576
208.121	7.94188	1.86214e-05	138.666	0.00032513
210.032	7.82993	1.88427e-05	136.711	0.000328995
212.048	7.71976	2.15057e-05	134.788	0.000375491
214.019	7.63608	2.3492e-05	133.326	0.000410172
216.034	7.53286	1.92222e-05	131.524	0.00033562
218.502	7.3949	2.43065e-05	129.116	0.000424394
220.528	7.29504	2.30662e-05	127.372	0.000402738
222.522	7.17598	2.04879e-05	125.293	0.000357721
224.536	7.06177	2.23811e-05	123.299	0.000390775
226.515	6.99549	2.25666e-05	122.142	0.000394014
228.967	6.84212	2.1549e-05	119.464	0.000376247
230.55	6.77898	2.39601e-05	118.362	0.000418345
232.548	6.67657	2.04923e-05	116.573	0.000357798
234.521	6.56946	1.7594e-05	114.703	0.000307192
236.511	6.48994	2.36995e-05	113.315	0.000413796
238.528	6.38377	2.41646e-05	111.461	0.000421915
240.547	6.27981	2.24116e-05	109.646	0.000391308
242.536	6.20565	2.65246e-05	108.351	0.000463122
244.514	6.11078	1.87115e-05	106.695	0.000326704
246.51	6.02226	2.15899e-05	105.149	0.000376962
248.582	5.92891	1.94256e-05	103.519	0.000339173
251.039	5.82722	1.98936e-05	101.744	0.000347344
253.045	5.76814	2.06704e-05	100.712	0.000360908
255.016	5.64057	2.46149e-05	98.4849	0.000429779
257.031	5.55583	2.77249e-05	97.0052	0.000484079
259.058	5.51167	1.91131e-05	96.2343	0.000333717
261.531	5.42147	2.35216e-05	94.6593	0.000410688
263.511	5.32976	2.71744e-05	93.058	0.000474467
265.501	5.26604	2.36903e-05	91.9455	0.000413634
267.527	5.15528	2.49931e-05	90.0115	0.000436381
269.525	5.08046	2.35614e-05	88.7053	0.000411384
272.015	5.01738	2.27817e-05	87.6038	0.000397771
274.038	4.93259	2.81263e-05	86.1235	0.000491087
276.056	4.88769	2.32603e-05	85.3395	0.000406126
278.027	4.81462	2.33813e-05	84.0636	0.00040824
280.025	4.7132	2.92146e-05	82.2929	0.000510089
282.521	4.67029	2.65383e-05	81.5437	0.000463361
284.548	4.57717	2.51422e-05	79.9177	0.000438984
286.556	4.51694	2.33242e-05	78.8662	0.000407242
288.537	4.44492	2.25393e-05	77.6087	0.000393538
290.505	4.40943	2.04486e-05	76.9889	0.000357035
293.017	4.29461	2.31153e-05	74.9842	0.000403595
295.017	4.22593	2.21342e-05	73.7851	0.000386464
297.026	4.16699	2.36574e-05	72.7559	0.000413059
299.03	4.14206	2.00006e-05	72.3208	0.000349211
301.027	4.04096	2.79772e-05	70.5555	0.000488484
303.018	4.03592	2.29919e-05	70.4676	0.000401441
305.022	3.98939	2.46017e-05	69.655	0.000429548
307.037	3.91285	2.32076e-05	68.3187	0.000405206
309.007	3.85102	2.1844e-05	67.2391	0.000381397
311.052	3.80724	2.83752e-05	66.4748	0.000495433
313.009	3.7487	2.7344e-05	65.4526	0.000477428
315.011	3.72305	2.72531e-05	65.0048	0.000475841
317.02	3.66328	2.18383e-05	63.9612	0.000381299
319.026	3.62875	2.01754e-05	63.3583	0.000352265
321.008	3.53493	2.9551e-05	61.7201	0.000515962
323.518	3.45995	2.17394e-05	60.4111	0.000379572
325.553	3.42663	3.07891e-05	59.8293	0.00053758
327.567	3.38318	2.59713e-05	59.0705	0.000453462
329.528	3.37087	2.58472e-05	58.8557	0.000451294
331.548	3.28364	1.92542e-05	57.3325	0.000336179
334.042	3.24411	2.54546e-05	56.6424	0.000444439
336.018	3.17281	3.34632e-05	55.3975	0.00058427
338.033	3.17185	2.70497e-05	55.3808	0.000472289
340.002	3.1554	2.19184e-05	55.0936	0.000382697
342.04	3.0761	2.79638e-05	53.709	0.000488251
344.5513	3.04214	3.30415e-05	53.1159	0.000576908
346.545	2.95866	2.43125e-05	51.6585	0.000424498
348.542	2.94052	2.58559e-05	51.3416	0.000451445
349.775	2.93954	2.49367e-05	51.3245	0.000435397